File: KFI-RHO-LTA-UFI_paper/dependence_plot_data/KFI_Crystallization temp.csv
Crystallization temp,SHAP value
0.0,0.000121776
30.0,-0.000645727
65.0,0.000471466
80.0,0.00104145
90.0,0.000380833
90.0,-0.000547274
90.0,0.000390572
100.0,0.000526976
100.0,0.000296419
100.0,-0.00343414
100.0,0.00242959
100.0,0.00173499
100.0,0.00115164
100.0,0.000442006
100.0,0.000101375
100.0,0.000516887
100.0,0.00308615
100.0,0.00155882
100.0,0.001738
100.0,0.000201671
100.0,0.000145271
100.0,-0.00343119
100.0,0.000769018
100.0,0.0019313
100.0,0.00088739
100.0,0.000224858
100.0,0.00132639
100.0,0.000410833
110.0,-0.00383764
110.0,-0.000268655
110.0,-0.00316522
110.0,7.2398e-06
110.0,-0.00438251
115.0,0.000237234
120.0,0.000475395
120.0,-6.41587e-05
120.0,0.00054931
120.0,0.000576923
120.0,0.000319207
125.0,0.000201142
125.0,0.000163514
125.0,0.000165659
130.0,0.000482421
130.0,0.000750269
135.0,0.000761707
135.0,0.000400062
135.0,0.000414566
135.0,0.000438722
135.0,0.000316736
135.0,0.000486637
135.0,0.000439321
135.0,0.00049761
138.0,0.000310193
140.0,0.000280086
140.0,0.000415435
140.0,0.0001254
140.0,0.000209444
140.0,0.000481637
140.0,0.000552445
140.0,0.000546447
140.0,0.000277908
140.0,0.000235243
140.0,0.000345624
140.0,0.000277845
140.0,0.000255034
140.0,0.000293286
140.0,0.000482526
140.0,0.000237916
140.0,0.000407521
140.0,0.000208625
142.5,0.000596898
142.813,0.000439907
145.0,0.000558598
147.732,0.000421011
150.0,0.000430729
150.0,0.00046991
150.0,0.000527206
150.0,0.000350715
150.0,0.000379349
150.0,0.000668986
150.0,0.000492015
150.0,0.000701798
150.0,0.000782035
150.0,0.000364902
150.0,0.00234511
150.0,0.000475063
150.0,0.000408973
150.0,0.000466523
150.0,0.000333836
150.0,0.000514907
150.0,0.000261857
150.0,0.00048831
150.0,0.000334082
150.0,0.000851155
150.0,0.000452659
150.0,0.000190635
150.0,0.000446136
150.0,0.000572983
150.0,0.000397775
150.0,0.000213276
150.0,0.00048757
150.0,0.000597001
150.0,0.000370781
150.0,0.000837305
150.0,0.000258343
150.0,0.00165022
150.0,0.000466444
150.0,0.0618044
150.0,0.000334239
150.0,0.000290593
150.0,0.000195979
150.0,0.000257063
150.0,0.000944177
150.0,0.000202765
158.0,0.000198033
160.0,0.000296235
160.0,0.000159759
160.0,0.000164368
160.0,5.34776e-05
160.0,0.0001205
160.0,0.000190574
160.0,0.000768057
160.0,0.000201839
160.0,9.72118e-05
160.0,-2.95693e-05
160.0,0.000698735
160.0,0.000589087
160.0,0.000117745
160.0,0.000697084
160.0,0.000157204
160.0,0.000140711
160.0,0.000624777
160.0,0.000277014
160.0,0.000130966
160.0,-0.000109682
160.0,-1.21798e-05
160.0,0.000315972
160.0,-0.000316892
160.0,0.000292418
160.0,0.00020758
160.0,0.000590933
160.0,0.000448394
160.0,0.000214276
160.0,0.000196672
160.0,0.000405512
160.0,0.000175374
160.0,-3.28619e-06
160.0,0.000563093
160.0,0.000120161
160.0,0.000485628
160.0,0.000473396
160.0,0.000358619
160.0,0.000920342
160.0,0.000231879
160.0,0.000294484
160.0,0.000444499
160.0,0.000124414
160.0,0.000116806
160.0,0.000281905
160.0,0.000563093
160.0,0.000117462
160.0,0.000168194
160.0,9.30543e-05
160.0,0.000119
160.0,0.000275839
160.0,-0.000140831
160.0,0.000318045
160.0,-0.000217348
160.0,0.000391886
160.0,7.05209e-05
160.0,0.000333751
160.0,0.000533294
160.0,0.000231716
160.0,0.00030953
160.0,0.000625031
160.0,0.000624627
160.0,-2.30195e-05
160.0,0.000168513
160.0,0.00025324
160.0,0.000506397
165.0,0.000332109
165.0,-6.84174e-05
170.0,0.000331806
170.0,0.000276613
170.0,8.41885e-05
170.0,0.000199449
170.0,3.4186e-05
170.0,0.00079406
170.0,-0.000129335
170.0,-7.76731e-05
170.0,-0.000104385
170.0,-9.48119e-05
170.0,-9.49176e-05
170.0,2.69617e-05
170.0,4.62493e-05
170.0,0.000119105
170.0,0.000110524
170.0,-0.00021804
170.0,0.000216326
170.0,4.01996e-05
170.0,-0.000672863
170.0,-0.000181065
170.0,-0.000510726
170.0,-0.00171294
170.0,0.000133626
170.0,0.000452666
170.0,4.16205e-05
175.0,-0.00087483
175.0,5.04482e-05
175.0,0.000123261
175.0,-0.000406988
175.0,7.24502e-05
175.0,0.00013488
175.0,-0.000125858
175.0,0.000116445
175.0,3.37593e-05
175.0,8.91134e-05
175.0,0.000102074
175.0,3.06657e-05
175.0,0.000150281
175.0,0.000145042
175.0,0.000220964
175.0,0.000304523
175.0,0.000151862
175.0,0.000110579
175.0,0.000141228
175.0,0.000128688
175.0,3.18719e-05
175.0,0.000120917
175.0,3.99861e-05
175.0,2.12102e-05
175.0,1.6139e-05
175.0,8.65011e-05
175.0,-1.42767e-05
175.0,0.000123481
175.0,-8.36339e-05
175.0,0.000142791
175.0,7.38439e-05
175.0,-0.000119058
175.0,4.64013e-05
175.0,8.76504e-05
175.0,-2.07071e-06
175.0,0.000196823
175.0,0.00045195
180.0,-4.87756e-05
180.0,3.86102e-05
180.0,-0.000461748
180.0,3.15994e-05
180.0,2.78481e-05
180.0,0.000109776
180.0,0.00011569
180.0,1.83901e-05
180.0,4.21572e-05
180.0,-4.77352e-05
180.0,0.000109041
180.0,-7.86776e-05
180.0,-0.000290998
180.0,0.000210654
190.0,-9.99113e-06
190.0,-9.2595e-05
190.0,-4.51385e-05
200.0,-0.000317837
200.0,-2.0349e-05
214.891,1.63932e-05
500.0,-0.000167328