File: KFI-RHO-LTA-UFI_paper/dependence_plot_data/KFI_OHSi.csv
OH/Si,SHAP value
0.0,-0.000725379
0.0,-0.000194538
0.0,-0.00048863
0.0,-0.00143921
0.0,-0.000352407
0.0,-0.000536078
0.0,-0.000229744
0.0,-0.000513202
0.0,-0.00045742
0.0,-0.000685194
0.0,-0.00285166
0.0,-0.000642268
0.0,-0.000373088
0.0,-0.000288188
0.0,-0.000306534
0.0,-0.000389528
0.0,-0.000367187
0.0,-0.000426837
0.0,-0.000360931
0.0,-0.000364676
0.0,-0.000297281
0.0,-0.00016098
0.0,-0.0008112
0.0,-0.000335337
0.0,-0.000359365
0.0,-0.00274783
0.0,-0.000367459
0.0,-0.00139921
0.0,-0.000331183
0.0,-0.000223616
0.0,-0.000266949
0.0,-0.000406809
0.0,-0.000398902
0.0,-0.000348427
0.0,-0.000466277
0.0,-0.000358098
0.0,-0.000485121
0.0,-0.000875251
0.0,-0.000478468
0.0,-0.000600819
0.0,-0.000766194
0.0,-0.000427809
0.0,-0.00142106
0.0,-0.00022347
0.0,-0.000406984
0.0,-0.00037902
0.0,-0.000460886
0.0,-0.000348546
0.0,-0.000337262
0.0,-0.000339525
0.0,-0.000335337
0.0,-0.000402542
0.0,-0.000483954
0.0,-0.000432469
0.0,-0.000427742
0.0,-0.000466664
0.0,-0.00034012
0.0,-0.000400559
0.0,-0.000373088
0.00260833,-0.000325854
0.016,-0.000307891
0.02,-0.00134339
0.024,-0.000284013
0.024,-0.000318622
0.0313,-0.000294594
0.036,-0.000585077
0.04,-0.000240654
0.04,-0.000285692
0.0420875,-0.000558858
0.048,-0.000380647
0.048,-0.000300638
0.05,-0.000449808
0.056,-0.000279416
0.060024,-0.000545401
0.064,-0.000468857
0.0664,-0.000422898
0.07,-0.000352288
0.072,-0.000357105
0.075,-0.00506854
0.08,-0.000429129
0.08,-0.000324976
0.088,-0.000342865
0.088,-0.000306253
0.088,-0.000146349
0.088,-0.000283026
0.0933333,-0.000450352
0.096,-0.000276804
0.1,-0.000470338
0.1,-0.000470338
0.1,-0.000518364
0.11039,-0.000178945
0.112,-0.000230989
0.12,-0.000255665
0.12,-0.000297852
0.125,-0.000150488
0.133333,-0.000675072
0.142857,-0.000230026
0.144,-0.00020339
0.144,0.000278001
0.144,-0.000296251
0.148,-1.92751e-05
0.15,-9.56228e-05
0.152,-0.000242109
0.16,-0.000349049
0.16,-0.000244171
0.16,-0.000254725
0.16,-0.000192459
0.16,-0.000387432
0.166667,-0.000228868
0.172,-0.000243146
0.176,-0.000140385
0.178,-0.000226168
0.18,-0.000247567
0.18,0.000143785
0.183908,-0.000384785
0.189394,0.0017188
0.191667,-0.000580899
0.192,-0.000236492
0.2,-0.0002892
0.2,-0.000202747
0.2,-0.000530773
0.2,-0.000332168
0.2,-0.000134251
0.2,-0.000138896
0.2,-0.000222713
0.2,-0.000217369
0.2,-0.000410791
0.2,-0.000122821
0.2,-7.37654e-05
0.2,-0.000135093
0.2,-3.23984e-05
0.2,-0.000124002
0.21,-0.000276357
0.22,-0.000110838
0.228,-0.000434373
0.24,-0.00017719
0.24,-0.000115342
0.24,-8.76578e-05
0.244966,-0.000355415
0.244966,-0.000249571
0.246,-0.000337156
0.25,-0.000511907
0.25,-9.01048e-05
0.256,-6.68879e-05
0.26,0.000580086
0.27,-4.26522e-05
0.28,0.000123322
0.287977,-8.09813e-05
0.299963,0.0417579
0.3,-7.05751e-05
0.3,-0.000268848
0.3,-0.000313326
0.3,-0.000230054
0.3,-0.000181083
0.3,-0.000209935
0.3,-6.46328e-05
0.303951,0.000535609
0.3125,-0.000510902
0.32,-0.000251283
0.32,-0.000321459
0.32,-0.000266101
0.324333,-0.000192904
0.33,-0.000513612
0.333333,-0.00015513
0.336,-0.00283309
0.34,-0.000185831
0.34,-0.000182083
0.35,-0.000220947
0.351958,-9.13186e-05
0.36,-0.000170649
0.363,-5.35109e-05
0.372,-0.000494734
0.384,-0.00222014
0.384615,8.25629e-05
0.4,0.000234339
0.4,0.000183327
0.4,0.000222191
0.4,0.00250268
0.4,0.000193369
0.4,0.000173539
0.4,0.000125385
0.4,0.000181559
0.4,6.64976e-05
0.4,0.0197166
0.4,8.86002e-05
0.4,0.000350357
0.415385,1.10905e-05
0.42,0.000335815
0.43,0.000189495
0.44,6.48403e-05
0.45,0.000367291
0.45,0.000553356
0.452632,0.000281572
0.46,0.00070986
0.479904,-0.000479074
0.48,0.000547958
0.485437,0.000842079
0.495283,0.000811481
0.5,0.000762214
0.5,0.00110193
0.5,0.000592358
0.5,0.000489565
0.5,0.000750259
0.5,0.000786703
0.50104,0.000617283
0.507614,0.00112247
0.512,0.000905701
0.51872,0.000597294
0.520833,0.000753088
0.52872,0.00045102
0.533333,0.000876388
0.542005,0.000742434
0.55,0.000714247
0.56,0.000937422
0.571429,0.00076047
0.575,0.00130306
0.587,0.000600199
0.6,0.000635987
0.6,0.000756224
0.6,-9.68975e-05
0.6,0.000528658
0.616,0.000497678
0.62,0.000309468
0.64,-0.0012389
0.663415,0.000271941
0.67,0.000756748
0.69,0.000669491
0.7,0.000729278
0.72,0.000399914
0.736,0.000904828
0.753,0.000502213
0.757576,0.000654034
0.8,0.000871675
0.8,0.000730794
0.8,0.00073552
0.8,0.000777602
0.8,0.000433638
0.8,-0.00201358
0.8,0.000418052
0.816049,0.000767778
0.867925,0.000598567
0.88,0.00035355
0.913,0.000416419
0.93,0.000871766
0.957,0.000484824
1,0.00100248
1.00694,0.00083247
1.04,0.000470122
1.0625,0.000668731
1.1,0.00035886
1.2,0.00104349
1.25,0.000610654
1.31,0.000281586
1.52,0.00129131
1.6,0.00143919
2,0.000151309
2.0,0.000273998
2.0,0.000209828
2.17647,-0.000706074
2.47667,7.28466e-05
3,0.000236993
3.2,0.000503003
8,0.000370537
12.8,8.87178e-05
358.4,0.000642902