File: KFI-RHO-LTA-UFI_paper/dependence_plot_data/KFI_SrSi.csv
Sr/Si,SHAP value
0.0,-0.00159539
0.0,-0.00030524
0.0,-0.000898065
0.0,-0.00033791
0.0,-0.000237888
0.0,-0.000369267
0.0,-0.000291255
0.0,-0.000233511
0.0,-0.000694671
0.0,-0.000322245
0.0,-0.000377749
0.0,-0.000333468
0.0,-0.000198371
0.0,-0.000185534
0.0,-0.000208726
0.0,-0.000288326
0.0,-0.000324942
0.0,-0.000265009
0.0,-0.000242411
0.0,-0.000286963
0.0,-0.000289039
0.0,-0.000213278
0.0,-0.000404888
0.0,-0.000317785
0.0,-0.000501446
0.0,-0.000281661
0.0,-0.000570894
0.0,-0.000546126
0.0,-0.000223311
0.0,-0.000371796
0.0,-0.000254519
0.0,-0.000263713
0.0,-0.000305886
0.0,-0.000438489
0.0,-0.000470789
0.0,-0.000357039
0.0,-0.000567759
0.0,-0.000303029
0.0,-0.00208484
0.0,-0.000558587
0.0,-0.00049953
0.0,-0.00156755
0.0,-0.000354288
0.0,-0.000299028
0.0,-0.000273944
0.0,-0.000242364
0.0,-0.000207788
0.0,-0.000226463
0.0,-0.00034309
0.0,-0.000609892
0.0,-0.000255389
0.0,-0.000259362
0.0,-0.00039077
0.0,-0.000341316
0.0,-0.000652879
0.0,-0.000423855
0.0,-0.000415488
0.0,-0.000265671
0.0,-0.000352732
0.0,-0.00048076
0.0,-0.000237216
0.0,-0.000543588
0.0,-0.000257491
0.0,-0.000320167
0.0,-0.000340225
0.0,-0.00210326
0.0,-0.000271208
0.0,-0.000341672
0.0,-0.000210609
0.0,-0.000353573
0.0,-0.00103918
0.0,-0.000415289
0.0,-0.000709027
0.0,-0.000419757
0.0,-0.000481068
0.0,-0.000184583
0.0,-0.00024596
0.0,-0.000381103
0.0,-0.00031189
0.0,-0.000207788
0.0,-0.000198054
0.0,-0.000411146
0.0,-0.000366384
0.0,-0.000232707
0.0,-0.000305287
0.0,-0.000249839
0.0,-0.00083321
0.0,-0.000352039
0.0,-0.000270311
0.0,-0.000200279
0.0,-0.000218538
0.0,-0.000787964
0.0,-0.000285729
0.0,-0.00052578
0.0,-0.00039363
0.0,-0.000241471
0.0,-0.000220394
0.0,-0.00145555
0.0,-0.000548559
0.0,-0.000315231
0.0,-0.000211019
0.0,-0.00122294
0.0,-0.000420886
0.0,-0.000369386
0.0,-0.00209961
0.0,-0.00060805
0.0,-0.000255631
0.0,-0.000437682
0.0,-0.000314671
0.0,-0.000306424
0.0,-0.000193367
0.0,-0.000326314
0.0,-0.000240915
0.0,-0.000660963
0.0,-0.000231783
0.0,-0.000201864
0.0,-0.000322227
0.0,-0.00524439
0.0,-0.000845149
0.0,-0.00024601
0.0,-0.000199151
0.0,-0.000570367
0.0,-0.000234376
0.0,-0.000466301
0.0,-0.000571052
0.0,-0.000330453
0.0,-0.000351542
0.0,-0.000437326
0.0,-0.000581421
0.0,-0.000448319
0.0,-0.000619372
0.0,-0.000299028
0.0,-0.00038774
0.0,-0.000177126
0.0,-0.000255861
0.0,-0.000263688
0.0,-0.000451242
0.0,-0.00107927
0.0,-0.000501194
0.0,-0.000459507
0.0,-0.00136998
0.0,-0.000232253
0.0,-0.000296921
0.0,-0.00021936
0.0,-0.00175887
0.0,-0.000281677
0.0,-0.000225332
0.0,-0.000215192
0.0,-0.000255631
0.0,-0.000212243
0.0,-0.000302976
0.0,-0.000205623
0.0,-0.000431097
0.0,-0.000887869
0.0,-0.0011819
0.0,-0.000316627
0.0,-0.000452341
0.0,-0.000263688
0.0,-0.000363201
0.0,-0.000288637
0.0,-0.000363821
0.0,-0.000348176
0.0,-0.000280473
0.0,-0.000351743
0.0,-0.000172416
0.0,-0.000326529
0.0,-0.000208673
0.0,-0.000326911
0.0,-0.000259677
0.0,-0.000244692
0.0,-0.000295059
0.0,-0.000236934
0.0,-0.000221848
0.0,-0.000481558
0.0,-0.000411618
0.0,-0.00019311
0.0,-0.000237587
0.0,-0.000289538
0.0,-0.000433175
0.0,-0.000425703
0.0,-0.000272719
0.0,-0.000202542
0.0,-0.000221891
0.0,-0.0002534
0.0,-0.000239445
0.0,-0.000315291
0.0,-0.00264945
0.0,-0.000488212
0.0,-0.00022851
0.0,-0.00032481
0.0,-0.000501897
0.0,-0.000557835
0.0,-0.000456715
0.0,-0.000168098
0.0,-0.000417207
0.0,-0.000154095
0.0,-0.000302909
0.0,-0.000527407
0.0,-0.000237431
0.0,-0.000409969
0.0,-0.000227459
0.0,-0.000287221
0.0,-0.0016744
0.0,-0.000313811
0.0,-0.000261012
0.0,-0.000354785
0.0,-0.000244115
0.0,-0.000239519
0.0,-0.000464673
0.0,-0.000340623
0.0,-0.000238651
0.0,-0.000473225
0.0,-0.000295227
0.0,-0.000193406
0.0,-0.000380116
0.0,-0.000207084
0.0,-0.000320614
0.0,-0.000742554
0.0,-0.000249281
0.0,-0.0003284
0.0,-0.00042509
0.0,-0.000290354
0.0,-0.000762515
0.0,-0.000237468
0.0,-0.000263896
0.0,-0.000212481
0.0,-0.000259228
0.0,-0.00031628
0.0,-0.000315637
0.0,-0.000228666
0.0,-0.000248837
0.0,-0.000431422
0.0,-0.000225577
0.0,-0.000159518
0.0,-0.000346175
0.0,-0.000863048
0.0,-0.000280932
0.0,-0.000332294
0.0,-0.000289932
0.0,-0.000368549
0.0,-0.000299847
0.0,-0.000188468
0.0,-0.00318513
0.0,-0.000274356
0.0,-0.000366504
0.0,-0.000316575
0.0,-0.000212912
0.0,-0.000208492
0.0,-0.00059882
0.0,-0.000242094
0.0,-0.000397974
0.0,-0.000562337
0.0,-0.00051474
0.0,-0.00018143
0.0,-0.000731586
0.0,-0.000292762
0.0,-0.00035474
0.0,-0.00029109
0.0,-0.00152238
0.0,-0.000180205
0.0,-0.000710975
0.0005,-0.000476255
0.01,0.0344267
0.06,0.00170656
0.0833333,0.0138611