File: KFI-RHO-LTA-UFI_paper/dependence_plot_data/KFI_KSi.csv
K/Si,SHAP value
0.0,-0.00310245
0.0,-0.00142423
0.0,-0.000844605
0.0,-0.000701737
0.0,-0.0012359
0.0,-0.000703598
0.0,-0.000674591
0.0,-0.000703528
0.0,-0.000716603
0.0,-0.00100441
0.0,-0.000835676
0.0,-0.000412335
0.0,-0.000833168
0.0,-0.00459015
0.0,-0.00106029
0.0,-0.000564247
0.0,-0.000546922
0.0,-0.000711049
0.0,-0.000682856
0.0,-0.000703724
0.0,-0.000620618
0.0,-0.000648348
0.0,-0.000490668
0.0,-0.000892489
0.0,-0.000716603
0.0,-0.000480044
0.0,-0.00111341
0.0,-0.000678048
0.0,-0.00334462
0.0,-0.00126385
0.0,-0.000890204
0.0,-0.000843179
0.0,-0.000763221
0.0,-0.00818038
0.0,-0.000625653
0.0,-0.000475469
0.0,-0.000752316
0.0,-0.000860246
0.0,-0.000711894
0.0,-0.000769819
0.0,-0.000882954
0.0,-0.000615778
0.0,-0.000874417
0.0,-0.000706239
0.0,-0.0010688
0.0,-0.000668896
0.0,-0.000465284
0.0,-0.00108523
0.0,-0.000639411
0.0,-0.000661744
0.0,-0.000778985
0.0,-0.00046429
0.0,-0.000786315
0.0,-0.000687499
0.0,-0.00125243
0.0,-0.00108575
0.0,-0.000562065
0.0,-0.000885262
0.0,-0.000565454
0.0,-0.000977053
0.0,-0.000460185
0.0,-0.000648515
0.0,-0.000481903
0.0,-0.000676682
0.0,-0.00135685
0.0,-0.000601962
0.0,-0.00110618
0.0,-0.000435023
0.0,-0.000873911
0.0,-0.000452735
0.0,-0.000735643
0.0,-0.000622447
0.0,-0.000504275
0.0,-0.000473914
0.0,-0.00129457
0.0,-0.000743807
0.0,-0.000649816
0.0,-0.00105828
0.0,-0.0026516
0.0,-0.000661697
0.0,-0.00108619
0.0,-0.000469848
0.0,-0.000681361
0.0,-0.000448535
0.0,-0.00164257
0.0,-0.000613732
0.0,-0.000672925
0.0,-0.000930741
0.0,-0.00169773
0.0,-0.000764216
0.0,-0.00159462
0.0,-0.000465525
0.0,-0.000655621
0.0,-0.000803095
0.0,-0.00182466
0.0,-0.00108179
0.0,-0.000415586
0.0,-0.000701273
0.0,-0.000853424
0.0,-0.000704075
0.0,-0.00165612
0.0,-0.000652881
0.0,-0.000544014
0.0,-0.000599527
0.0,-0.000665494
0.0,-0.000650932
0.0,-0.000879404
0.0,-0.00072216
0.0,-0.000635347
0.0,-0.000796121
0.0,-0.000827907
0.0,-0.000672912
0.0,-0.000700908
0.0,-0.000530728
0.0,-0.000554151
0.0,-0.000715039
0.0,-0.00076823
0.0,-0.000906888
0.0,-0.00104658
0.0,-0.0010122
0.0,-0.000604432
0.0,-0.000691592
0.0,-0.000468759
0.0,-0.000987531
0.0,-0.000943479
0.0,-0.000588619
0.0,-0.00326211
0.0,-0.0119395
0.0,-0.000588242
0.0,-0.000478645
0.0,-0.000460367
0.0,-0.000715951
0.0,-0.00207406
0.0,-0.000703766
0.0,-0.000513064
0.0,-0.000718584
0.0,-0.000770885
0.0,-0.00233375
0.0,-0.000446201
0.0,-0.000493508
0.0,-0.000805749
0.0,-0.000471965
0.0,-0.000948267
0.0,-0.000830738
0.0,-0.00080746
0.0,-0.00109936
0.0,-0.000722492
0.0,-0.000735875
0.0,-0.000780086
0.0,-0.00111339
0.0,-0.000700081
0.0,-0.00487701
0.0,-0.00110696
0.0,-0.000751397
0.0,-0.000697165
0.0,-0.000668319
0.0,-0.000681063
0.0,-0.000510899
0.0,-0.00112652
0.0,-0.000543916
0.0,-0.000567114
0.0,-0.000618696
0.0,-0.00265293
0.0,-0.00080874
0.0,-0.000486225
0.0,-0.00140094
0.0,-0.000569477
0.0,-0.000577646
0.0,-0.000788166
0.0,-0.000743755
0.0,-0.000643565
0.0,-0.000816512
0.0,-0.00075249
0.0,-0.00265293
0.0,-0.000773444
0.0,-0.000909661
0.0,-0.000657291
0.0,-0.00113351
0.0,-0.00198935
0.0,-0.000494639
0.0,-0.000703443
0.0,-0.00438877
0.0,-0.00131163
0.0,-0.000732759
0.0,-0.000707116
0.0,-0.000613592
0.0,-0.000791178
0.0,-0.000468325
0.0,-0.000829659
0.0,-0.000839362
0.0,-0.00109698
0.0,-0.000581139
0.0,-0.000594151
0.0,-0.000692383
0.0,-0.00110473
0.0,-0.000724226
0.0,-0.00159462
0.0,-0.00128818
0.0,-0.00112556
0.0,-0.000655066
0.0,-0.00114173
0.0,-0.00598579
0.0,-0.000676093
0.0,-0.000751207
0.0,-0.000560057
0.0,-0.000454663
0.0,-0.000498183
0.0,-0.000655794
0.0,-0.000754675
0.0,-0.0121164
0.0,-0.000477762
0.0,-0.000669645
0.0,-0.000792869
0.0,-0.000523005
0.0,-0.000518737
0.0,-0.000420982
0.0,-0.000626559
0.0,-0.00152652
0.0,-0.00113148
0.0,-0.001305
0.0,-0.000406829
0.00285714,-0.000571213
0.04,-0.000382298
0.05,-0.000651144
0.055,-1.32444e-05
0.06875,1.89422e-05
0.1,-0.000785817
0.1,-0.00116319
0.119697,-6.61661e-06
0.132013,0.00551711
0.15,-0.000191293
0.154,0.000338035
0.154991,0.000629156
0.166667,2.06173e-05
0.174948,0.000230589
0.18,0.000221203
0.189394,7.39739e-05
0.2,-0.000313421
0.2,-0.000167107
0.2,0.000383382
0.2,-0.000116712
0.2,-0.000257083
0.2,-0.000442321
0.25,0.00134967
0.299963,0.0646452
0.3,0.000450227
0.3,0.000944544
0.335,0.0250766
0.36,0.00107725
0.372,0.00161195
0.375,0.00121231
0.4,0.00300529
0.445,0.0767694
0.454545,0.00349963
0.5,0.0140036
0.6,0.0120621
0.666667,0.00293189
0.73,0.00225236
0.78,0.00235061
0.78,0.00129891
0.8,0.0022788
1.0395,0.00183793
1.75439,-0.000957
6,0.0015971
448,0.0022521