File: KFI-RHO-LTA-UFI_paper/dependence_plot_data/KFI_H2OSi.csv
H$_2$O/Si,SHAP value
0.0,-0.00123282
0.0,5.64882e-05
0.0,0.000261111
0.0,0.00019875
0.0,0.000372616
0.0,0.000174624
0.0,4.80817e-05
0.0,9.30749e-05
0.0,0.000178939
0.0,0.000123225
0.0,-0.000109793
0.0,0.000179813
0.0,0.000136037
0.0,5.51985e-05
0.388889,0.000266643
1.0,0.0015012
1.80072,-0.000120124
2.04082,0.000239727
2.13333,0.000154417
2.5,0.000120407
2.85714,0.000137906
3.0,0.000165956
3.06,0.000309349
3.29997,0.000224808
3.3,0.000167854
3.75,0.000149956
4.21053,0.000309185
4.54545,0.000324537
4.54545,0.000219218
4.74716,0.000282461
4.78723,0.000286659
4.89362,0.00060706
5,0.000355407
5,0.0002684
5,0.000445113
5,0.000255082
5.0,0.00019906
5.0,0.000339106
5,0.000391278
5,0.000216372
5,0.000534599
5.01667,0.000227966
5.17857,0.000385098
5.33333,0.000247634
5.6,0.000191303
5.9727,0.000316966
6.25,0.00197332
6.66667,0.00193943
7,0.000464864
7.0,0.00104863
7,0.000319747
7.25,0.000209197
7.5,0.000343745
7.69992,0.000326705
7.69992,0.00030457
8.16667,0.000255152
8.75,0.00161617
9.0,0.00112936
9.5,0.000580453
9.82,0.000163012
10,0.000503768
10.0,-0.00142323
10.0,8.536e-05
10.0,5.80219e-05
10.0,0.000533017
10.0,0.00020591
10.0,-0.00145893
10.0,5.80219e-05
10,-0.00180506
10,5.22297e-05
10.5042,6.34346e-05
10.6061,2.70364e-05
10.6667,5.57132e-05
10.673,0.000563255
11.0,3.0411e-05
11.3,0.000183208
11.6,-0.000239418
11.9585,0.000114565
12.3457,8.21586e-05
12.6875,8.46973e-05
13,0.000147768
13.5,0.000743405
13.6459,-0.00083934
14,-0.000700687
14.0,-0.00157286
14.0,-0.00044342
14.7059,0.00293489
15,1.08942e-05
15,6.39294e-05
15,8.95553e-05
15,0.000197851
15,8.92868e-05
15.0,0.000116142
15.0,0.000123748
15.0,9.96403e-05
15.0,7.97492e-05
15.0,7.57696e-05
15,8.37154e-05
15,0.00013869
15,0.000506843
15.5,0.000118695
15.8,-0.00388454
16.0,0.000622808
16,0.0286243
16.4998,0.000233533
16.4998,0.000325984
16.6667,-0.00112868
16.6667,0.000154152
16.6667,0.000146621
17.5,-4.08969e-05
18.0,0.000126968
19.2,0.000128127
19.5,0.000208808
19.5,0.000185576
20,0.00013295
20,-6.04857e-05
20,0.000316687
20,0.000185538
20,8.402e-05
20.0,7.68747e-05
20.0,0.000151492
20.0,0.000146951
20.0,0.00010334
20.0,0.000140711
20,-0.00230205
20,-6.31395e-06
20,-0.000815248
20.4,0.000137411
21,0.000165583
21.135,0.000163607
22,0.000143621
22.5,0.000101441
22.7273,0.000220626
23.5189,-0.0030911
23.8095,-0.000269246
24.434,0.000101194
25,0.000250907
25,0.000103204
25.0,5.44056e-05
25,4.45325e-05
26.0,0.000177292
27,4.53304e-05
27.9444,-9.11102e-05
28,7.35928e-05
30,0.000121102
30,8.02802e-05
30,-4.20959e-05
30,-6.14921e-05
30,7.26901e-06
30,6.31748e-05
30,2.57523e-05
30,8.69863e-05
30,0.000226007
30,6.83122e-05
30,0.000203704
30.0,-2.53559e-05
30.0,0.000233911
30.0,5.21301e-05
30.0,2.34695e-05
30.0,-2.6223e-06
30.0,5.75935e-05
30.0,3.36172e-05
30,9.79405e-06
30,-0.000132097
30,5.29621e-05
30,0.000124942
30,-7.60874e-06
30,2.7591e-05
30,0.000341903
30,-8.82204e-06
30,0.00021537
30.45,0.000139515
31,0.000182805
31.2,4.62732e-05
33.2,-0.000485721
35,6.82947e-06
35,3.065e-05
35,-0.00010685
35,6.46934e-06
35.0,-0.00017579
35.0,-0.00024038
35,-0.000134155
35.04,-6.09993e-05
35.5625,0.000102697
36,0.000131853
36.7816,2.37089e-05
37.182,-0.000169616
37.8788,-2.88894e-05
38.0711,3.5412e-05
38.6287,-3.56047e-05
40,-8.66159e-07
40,-0.000165466
40,-9.78162e-05
40,-0.00124503
40,-0.00100599
40,2.24533e-05
40.0,3.76411e-05
40.0,4.14161e-06
40.0,3.76411e-05
40.0,5.07359e-08
40.0,-8.03027e-05
40.0,-0.000125988
40.0,-0.000121149
40.0,-0.000141341
40.0,-6.33716e-05
40.0,-0.000149018
40,-0.000191001
40,-0.00117278
40,-0.000176901
40,-0.000191941
40,5.07864e-06
40,-2.4463e-05
40,-0.00012949
40,-2.10413e-05
40,-0.000118616
40,6.55723e-05
40.3297,-0.000188335
40.8889,-0.000210978
41.5,-5.81249e-05
42,-0.000104032
42,-5.07769e-06
42.0,-9.42337e-05
42.3077,1.12714e-05
43.5714,-9.31603e-05
43.7584,2.73263e-05
43.7584,3.40824e-05
44,3.38538e-05
44.0,-1.57017e-05
44,1.74019e-05
45,-6.89134e-05
45.0,-7.90379e-05
45.0,-2.4936e-05
45,7.76033e-06
45,-0.000170015
45.4545,-0.00156434
45.4545,-3.18478e-05
45.72,-0.000302272
47,2.51757e-05
50,-2.43796e-05
50,-0.000115334
50,-0.000206273
50,-0.000114875
54,-2.59656e-05
57,-7.85749e-06
58.6538,-9.99031e-06
60,0.000563985
60,7.41037e-05
60,2.86687e-05
64,0.000112994
68.8119,-0.00641885
76.9231,-0.00155664
84,-0.000775281
95,6.83343e-05
100,-0.00070545
100.0,-0.000149222
100.0,-0.000368916
100,-0.000521323
108.824,0.00136319
120.0,-0.000170008
136.25,-0.0023131
174.0,-0.000886083
200.0,-0.000241128
250,4.79768e-05
410,-0.000679856
714.286,0.000164249