File: KFI-RHO-LTA-UFI_paper/dependence_plot_data/LTA_H2OSi.csv
H$_2$O/Si,SHAP value
0.0,-0.000810537
0.0,-0.00110656
0.0,-0.000598369
0.0,-0.000722723
0.0,-0.00156643
0.0,-0.000515691
0.0,-0.00275436
0.0,-0.000735031
0.0,-0.000793397
0.0,-0.00104293
0.0,-0.000847356
0.0,-0.00101744
0.0,-0.000926285
0.0,-0.000816045
0.388889,-0.000603484
1.0,-0.00597419
1.80072,-0.000169783
2.04082,-0.000155752
2.13333,-0.000430921
2.5,-0.000826575
2.85714,-0.000859416
3.0,-0.000443691
3.06,-0.000418801
3.29997,-0.000155446
3.3,-0.0004285
3.75,-0.000130551
4.21053,-0.000532949
4.54545,-0.000176717
4.54545,5.90897e-05
4.74716,-0.000415872
4.78723,-0.00019797
4.89362,0.00213094
5,-0.00179824
5,-0.000361855
5,-0.00290211
5,-0.000827156
5.0,-0.00180277
5.0,-0.00234048
5,-0.000462506
5,-0.00159745
5,-0.000777738
5.01667,-0.00233268
5.17857,-0.000491744
5.33333,-0.000131628
5.6,-0.00211668
5.9727,-0.000123753
6.25,-0.000942838
6.66667,-0.00103049
7,-0.0012636
7.0,-0.00372235
7,-0.000262386
7.25,-0.000202723
7.5,-0.00221237
7.69992,-0.000551184
7.69992,-0.000395464
8.16667,-0.0029649
8.75,-0.00216444
9.0,-0.00342501
9.5,-0.00144071
9.82,-0.00170413
10,-0.00126791
10.0,-0.00455502
10.0,-0.000853416
10.0,-0.0011209
10.0,-0.0083442
10.0,-0.00173592
10.0,-0.00411475
10.0,-0.0011209
10,-0.00246592
10,-0.00112438
10.5042,-0.000759533
10.6061,-0.000862159
10.6667,-0.000980462
10.673,-0.0156483
11.0,-0.00117017
11.3,-0.00243278
11.6,-0.00795371
11.9585,-0.00268823
12.3457,-0.0011105
12.6875,-0.00277541
13,-0.00218077
13.5,-0.00998538
13.6459,-0.0054118
14,-0.0021864
14.0,-0.00194886
14.0,-0.00696427
14.7059,-0.00198095
15,-0.00438628
15,-0.00263322
15,-0.00190425
15,-0.00114208
15,-0.00182468
15.0,-0.00288225
15.0,-0.000943954
15.0,-0.00181037
15.0,-0.000919525
15.0,-0.00337821
15,-0.002
15,-0.0027004
15,-0.00529394
15.5,-0.00315921
15.8,-0.00128566
16.0,-0.00444673
16,-0.000917963
16.4998,-0.000987283
16.4998,-0.00110361
16.6667,-0.00352918
16.6667,-0.00233199
16.6667,-0.00149352
17.5,-0.0134351
18.0,-0.00172627
19.2,-0.00102956
19.5,-0.000912679
19.5,-0.000931964
20,-0.00100352
20,-0.000680159
20,-0.000843953
20,-0.000785453
20,-0.0011012
20.0,-0.00238537
20.0,-0.00168929
20.0,-0.000919026
20.0,-0.00105803
20.0,-0.00211215
20,-0.00615466
20,-0.000688879
20,-0.00301911
20.4,-0.000416447
21,-0.000443971
21.135,-0.000602036
22,-0.00354552
22.5,-0.00120698
22.7273,-0.00133388
23.5189,-0.00148886
23.8095,-0.0015119
24.434,-0.00262192
25,2.50068e-05
25,-4.42364e-05
25.0,-0.000567337
25,-0.00287382
26.0,-1.8982e-05
27,-0.00721207
27.9444,0.000327581
28,0.000968516
30,0.000375021
30,0.000544001
30,0.000563163
30,0.000941491
30,5.82721e-05
30,0.000835879
30,0.000180626
30,0.00044262
30,0.000272984
30,0.00114635
30,0.000332525
30.0,-0.000432958
30.0,0.000322024
30.0,0.000200807
30.0,0.000344066
30.0,0.000107558
30.0,0.000502125
30.0,0.000520809
30,0.000134212
30,0.00143586
30,0.000663261
30,0.0022655
30,5.01603e-05
30,7.185e-06
30,8.93543e-05
30,3.09187e-05
30,0.000401716
30.45,0.000382206
31,0.000361029
31.2,0.000658747
33.2,-0.00131961
35,0.000239988
35,0.000521888
35,0.000745784
35,0.000261331
35.0,-0.000246574
35.0,-0.0017068
35,0.00110697
35.04,0.00026372
35.5625,0.000750908
36,0.000108455
36.7816,0.000744769
37.182,0.000741379
37.8788,0.00162437
38.0711,0.00162864
38.6287,0.000884066
40,0.00192429
40,0.00414007
40,0.00183454
40,0.00210768
40,0.0017152
40,0.00238225
40.0,0.00207465
40.0,0.00221685
40.0,0.00207529
40.0,0.00165422
40.0,0.00300195
40.0,0.00186304
40.0,0.00182888
40.0,0.001993
40.0,0.00532051
40.0,0.0018331
40,0.00158729
40,0.00199575
40,0.00376125
40,0.00102491
40,0.00165293
40,0.0019313
40,0.00186252
40,0.00188649
40,0.00385269
40,0.00190442
40.3297,0.00159626
40.8889,8.7475e-05
41.5,0.00200607
42,0.00130577
42,0.00191996
42.0,0.00159763
42.3077,0.00210446
43.5714,0.00235094
43.7584,0.00210176
43.7584,0.00193492
44,0.00419055
44.0,0.0019895
44,0.00173381
45,0.00247906
45.0,0.0022257
45.0,0.00247199
45,0.00167572
45,0.000313588
45.4545,0.00130657
45.4545,0.00246506
45.72,0.00342855
47,0.00220918
50,0.00145898
50,0.00120119
50,0.00352646
50,0.0011777
54,0.00151885
57,0.00238462
58.6538,0.0038291
60,0.0019201
60,0.00150097
60,0.00151365
64,0.00239585
68.8119,0.00556143
76.9231,0.00113934
84,0.0212724
95,0.00187761
100,0.00111893
100.0,0.00346883
100.0,0.00191558
100,0.00256422
108.824,0.000506493
120.0,-0.00316973
136.25,-0.00248442
174.0,0.00607177
200.0,0.000845954
250,0.00159673
410,0.00150622
714.286,0.000870898