File: KFI-RHO-LTA-UFI_paper/dependence_plot_data/LTA_OHSi.csv
OH/Si,SHAP value
0.0,-0.000475415
0.0,-0.0025178
0.0,-0.000662325
0.0,-0.00025767
0.0,-0.00117854
0.0,-0.00181025
0.0,-0.00336001
0.0,1.50212e-05
0.0,-0.000606892
0.0,0.000793299
0.0,-0.00136929
0.0,-0.000720405
0.0,-0.000622654
0.0,-0.0020601
0.0,0.00559531
0.0,-0.000379828
0.0,-0.000964919
0.0,-0.000690103
0.0,-0.00129898
0.0,-0.000953274
0.0,-0.00195331
0.0,-0.00334069
0.0,-0.000751885
0.0,-0.000708746
0.0,-0.000500426
0.0,0.000202892
0.0,-0.000386887
0.0,-0.000605008
0.0,-0.000462797
0.0,-0.0027035
0.0,-0.00246876
0.0,-0.00198371
0.0,-0.000557554
0.0,-0.00111305
0.0,-0.000609375
0.0,-0.000329945
0.0,-0.000302317
0.0,-0.00249293
0.0,-0.000474724
0.0,-0.00112506
0.0,-0.00107653
0.0,-0.000577055
0.0,-0.00071784
0.0,-0.0034546
0.0,-0.000674955
0.0,-0.00107668
0.0,-0.00163449
0.0,-0.000390267
0.0,-0.000715927
0.0,0.000358133
0.0,-0.000747244
0.0,-0.000538273
0.0,-0.00109022
0.0,-0.000581494
0.0,-0.000672679
0.0,-0.000906058
0.0,-0.000670629
0.0,-0.000470274
0.0,-0.00060758
0.00260833,-0.00109324
0.016,-0.0031358
0.02,-0.00222523
0.024,-0.00183998
0.024,-0.00232961
0.0313,-0.00132251
0.036,-0.00147401
0.04,-0.00423741
0.04,-0.00183481
0.0420875,-0.00163074
0.048,-0.00285311
0.048,-0.00188888
0.05,-0.00129308
0.056,-0.00205092
0.060024,-0.00175115
0.064,-0.0022963
0.0664,-0.00246989
0.07,-0.00256086
0.072,-0.00285515
0.075,-0.00180598
0.08,-0.00124755
0.08,-0.00184077
0.088,-0.00262815
0.088,-0.00281454
0.088,-0.00664177
0.088,-0.00276765
0.0933333,-0.0010447
0.096,-0.00278297
0.1,-0.00149912
0.1,-0.00149912
0.1,-0.00166768
0.11039,-0.00290226
0.112,-0.00229778
0.12,-0.00201479
0.12,-0.00158405
0.125,-0.00396563
0.133333,-0.00222917
0.142857,-0.00288238
0.144,-0.00227479
0.144,-0.00552448
0.144,-0.00109967
0.148,-0.00417364
0.15,-0.00274915
0.152,-0.0026325
0.16,-0.00134481
0.16,-0.00212504
0.16,-0.00208101
0.16,-0.00290477
0.16,-0.00314607
0.166667,-0.00155893
0.172,-0.00124037
0.176,-0.0024344
0.178,-0.00130751
0.18,-0.00198023
0.18,-0.00340789
0.183908,-0.00106805
0.189394,-0.00186302
0.191667,-0.00126909
0.192,-0.00261342
0.2,-0.00149574
0.2,-0.00328424
0.2,-0.00105337
0.2,-0.00113846
0.2,-0.00306836
0.2,-0.00283614
0.2,-0.00178347
0.2,-0.00242589
0.2,-0.00124437
0.2,-0.00714047
0.2,-0.00304829
0.2,-0.00284771
0.2,-0.00670842
0.2,-0.00222677
0.21,-0.00257831
0.22,-0.0052721
0.228,-0.00100967
0.24,-0.00257381
0.24,-0.0019307
0.24,-0.00208662
0.244966,-0.00136198
0.244966,-0.00170535
0.246,-0.00143247
0.25,-0.00143188
0.25,-0.00267385
0.256,-0.00401428
0.26,-0.00258984
0.27,-0.00339476
0.28,-0.00332657
0.287977,-0.00304721
0.299963,-0.0030469
0.3,-0.00452168
0.3,-0.00128981
0.3,-0.00146998
0.3,-0.00135601
0.3,-0.00157057
0.3,-0.00219019
0.3,-0.00313908
0.303951,-0.00714137
0.3125,-0.0012175
0.32,-0.00125503
0.32,-0.00147362
0.32,-0.00152104
0.324333,-0.00122244
0.33,-0.00093507
0.333333,-0.00158531
0.336,-0.00133657
0.34,-0.00124603
0.34,-0.00121915
0.35,-0.00161889
0.351958,-0.00333695
0.36,-0.0026453
0.363,-0.00109383
0.372,-0.00250415
0.384,-0.00122187
0.384615,-0.00143596
0.4,-0.000841255
0.4,-0.00125118
0.4,-0.000887891
0.4,-0.00319111
0.4,-0.00284177
0.4,-0.00105845
0.4,-0.00155539
0.4,-0.00333539
0.4,-0.00131532
0.4,-0.00293862
0.4,-0.00101269
0.4,-0.00112487
0.415385,-0.00106461
0.42,-0.00204303
0.43,-0.00107078
0.44,-0.000879665
0.45,-0.00364323
0.45,-0.00723378
0.452632,-0.00179319
0.46,-0.00697561
0.479904,-0.00227418
0.48,-0.0038649
0.485437,-0.00258235
0.495283,-0.0026711
0.5,-0.00153468
0.5,-0.00142727
0.5,-0.00282547
0.5,-0.00376047
0.5,-0.00140708
0.5,-0.00148532
0.50104,-0.00106962
0.507614,-0.00123972
0.512,-0.00221067
0.51872,-0.00095377
0.520833,-0.00290415
0.52872,-0.00131592
0.533333,-0.00815144
0.542005,-0.000716575
0.55,-0.00161541
0.56,-0.000692548
0.571429,-0.00235919
0.575,-0.000737552
0.587,-0.00179352
0.6,-0.00107333
0.6,-0.00236933
0.6,-0.00207438
0.6,-0.00142294
0.616,-0.00151093
0.62,-0.00223525
0.64,-0.00436685
0.663415,-0.00227686
0.67,-0.000686807
0.69,-0.00864737
0.7,-0.00126354
0.72,-0.0021209
0.736,-0.00160808
0.753,-0.00203003
0.757576,-0.00116132
0.8,-0.000483872
0.8,-0.00742496
0.8,-0.000366103
0.8,-0.000218794
0.8,-0.00345685
0.8,-0.00264712
0.8,-0.00928817
0.816049,-0.000276722
0.867925,-0.00140554
0.88,-0.00931982
0.913,-0.00108409
0.93,-0.000196457
0.957,-0.00103453
1,-7.62068e-07
1.00694,-0.000199397
1.04,-0.00103897
1.0625,-0.0105393
1.1,-0.0154457
1.2,-0.00011055
1.25,-0.00123044
1.31,0.000673891
1.52,0.0025337
1.6,0.00224748
2,-0.0160154
2.0,0.0780652
2.0,0.0608729
2.17647,0.0196498
2.47667,0.0828292
3,0.0506946
3.2,0.0136068
8,0.00359866
12.8,0.002707
358.4,0.00522818