File: KFI-RHO-LTA-UFI_paper/dependence_plot_data/LTA_Crystallization temp.csv
Crystallization temp,SHAP value
0.0,0.00712492
30.0,0.0100663
65.0,0.0104758
80.0,0.0726004
90.0,0.0219415
90.0,0.00862737
90.0,0.0220614
100.0,0.0641282
100.0,0.00555203
100.0,0.00436001
100.0,0.00413093
100.0,0.00440809
100.0,0.00400948
100.0,0.00475115
100.0,0.00358929
100.0,0.0152837
100.0,0.0043805
100.0,0.0037786
100.0,0.00398007
100.0,0.00700232
100.0,0.00518037
100.0,0.0043131
100.0,0.00467289
100.0,0.00417894
100.0,0.00856223
100.0,0.00654714
100.0,0.00428044
100.0,0.0119137
110.0,0.00351356
110.0,0.00501715
110.0,0.00354723
110.0,0.017778
110.0,0.00345304
115.0,0.00914703
120.0,-0.00339753
120.0,0.00356984
120.0,3.52123e-05
120.0,0.000392897
120.0,0.00122455
125.0,0.00158881
125.0,0.00071069
125.0,0.000709948
130.0,0.00107698
130.0,0.00223198
135.0,2.17375e-05
135.0,0.00070694
135.0,-0.000799972
135.0,-0.000138977
135.0,-0.00520597
135.0,-0.000181737
135.0,-0.000135196
135.0,-0.0003526
138.0,-0.00158362
140.0,-0.00135896
140.0,-0.000883647
140.0,-0.0011601
140.0,-0.000851276
140.0,-0.0013806
140.0,-0.000483089
140.0,-0.000525511
140.0,-0.00276023
140.0,-0.00250225
140.0,-0.00153399
140.0,-0.000967796
140.0,-0.00365405
140.0,-0.00114104
140.0,-0.00102943
140.0,-0.00275048
140.0,-0.00455262
140.0,-0.00172672
142.5,-0.00270648
142.813,-0.00241863
145.0,-0.010333
147.732,-0.00266169
150.0,-0.00190003
150.0,-0.00244409
150.0,-0.00151563
150.0,-0.00273204
150.0,-0.00417015
150.0,-0.00177861
150.0,-0.00181758
150.0,-0.00227622
150.0,-0.00121309
150.0,-0.0027392
150.0,-0.00149366
150.0,-0.00191432
150.0,-0.00161961
150.0,-0.00240951
150.0,-0.00345931
150.0,-0.00148877
150.0,-0.00185131
150.0,-0.0015432
150.0,-0.00128904
150.0,-0.00301784
150.0,-0.00179147
150.0,-0.00293369
150.0,-0.00291523
150.0,-0.00189065
150.0,-0.00140446
150.0,-0.00198933
150.0,-0.00142926
150.0,-0.00294629
150.0,-0.00224676
150.0,-0.00750591
150.0,-0.00185336
150.0,-0.00241118
150.0,-0.00245459
150.0,-0.00229583
150.0,-0.00324287
150.0,-0.00200893
150.0,-0.00126219
150.0,-0.00226945
150.0,-0.00753978
150.0,-0.00440624
158.0,-0.00634929
160.0,-0.00630145
160.0,-0.00304635
160.0,-0.00330896
160.0,-0.00621371
160.0,-0.00305103
160.0,-0.0021829
160.0,-0.00149915
160.0,-0.00134748
160.0,-0.0044707
160.0,-0.00367555
160.0,-0.00136182
160.0,-0.00249781
160.0,-0.00256919
160.0,-0.00145888
160.0,-0.00250139
160.0,-0.00373834
160.0,-0.00163353
160.0,-0.00150978
160.0,-0.00310193
160.0,-0.00302234
160.0,-0.00150483
160.0,-0.00163503
160.0,-0.00515577
160.0,-0.00205793
160.0,-0.00317832
160.0,-0.00120549
160.0,-0.00203292
160.0,-0.00135569
160.0,-0.00251222
160.0,-0.00162374
160.0,-0.00280869
160.0,-0.00231354
160.0,-0.00198203
160.0,-0.00322479
160.0,-0.00165972
160.0,-0.0014575
160.0,-0.00106886
160.0,-0.00136512
160.0,-0.0022002
160.0,-0.00161344
160.0,-0.00173013
160.0,-0.0047936
160.0,-0.00260225
160.0,-0.00225826
160.0,-0.00198203
160.0,-0.00397447
160.0,-0.00247656
160.0,-0.00291586
160.0,-0.00174312
160.0,-0.00110808
160.0,-0.00310508
160.0,-0.0032088
160.0,-0.00283148
160.0,-0.00209575
160.0,-0.00272164
160.0,-0.00173214
160.0,-0.00139823
160.0,-0.00407344
160.0,-0.00201086
160.0,-0.00151517
160.0,-0.00164767
160.0,-0.00206927
160.0,-0.00354481
160.0,-0.00155405
160.0,-0.00122916
165.0,-0.00154756
165.0,-0.0030649
170.0,-0.0015147
170.0,-0.00173326
170.0,-0.00376211
170.0,-0.00294649
170.0,-0.00509294
170.0,-0.00176621
170.0,-0.00630336
170.0,-0.00914249
170.0,-0.00220717
170.0,-0.0097926
170.0,-0.00759533
170.0,-0.00408572
170.0,-0.00149447
170.0,-0.00583744
170.0,-0.00204504
170.0,-0.0044622
170.0,-0.00211212
170.0,-0.00241405
170.0,-0.00692803
170.0,-0.00840421
170.0,-0.00496957
170.0,-0.00510272
170.0,-0.00145654
170.0,-0.00140704
170.0,-0.00246857
175.0,0.0277877
175.0,-0.00151034
175.0,-0.00238826
175.0,-0.00290129
175.0,-0.00104695
175.0,-0.00108078
175.0,-0.000490923
175.0,-0.00103345
175.0,-0.00125495
175.0,-0.00169524
175.0,-0.00135583
175.0,-0.00191116
175.0,-0.002048
175.0,-0.0020243
175.0,-0.00172722
175.0,-0.00184535
175.0,-0.00215738
175.0,-0.00130714
175.0,-0.00108801
175.0,-0.00124409
175.0,-0.00107301
175.0,-0.00154621
175.0,-0.00126544
175.0,-0.00316358
175.0,-0.00270571
175.0,-0.0018041
175.0,-0.00234641
175.0,-0.000922815
175.0,-0.00142484
175.0,-0.000990734
175.0,-0.00165316
175.0,-0.00130503
175.0,-0.00108297
175.0,-0.00179273
175.0,-0.00164113
175.0,-0.0013048
175.0,-0.00188679
180.0,-0.00143991
180.0,-0.00273426
180.0,-0.00579204
180.0,-0.00324651
180.0,-0.00327429
180.0,-0.00375338
180.0,-0.00210543
180.0,-0.0030254
180.0,-0.00422915
180.0,-0.00441315
180.0,-0.00111329
180.0,-0.00641897
180.0,-0.0048457
180.0,-0.00165556
190.0,-0.00537763
190.0,-0.002827
190.0,-0.00290785
200.0,-0.0118408
200.0,-0.0113827
214.891,-0.00132319
500.0,-0.0107646