File: KFI-RHO-LTA-UFI_paper/dependence_plot_data/LTA_NaSi.csv
Na/Si,SHAP value
0.0,-0.00101336
0.0,-0.00100024
0.0,-0.00101336
0.0,-0.00077757
0.0,-0.0011924
0.0,-0.00446783
0.0,-0.000318188
0.0,-0.00147634
0.0,-0.000844502
0.0,-0.000735743
0.0,-0.00046041
0.0,-0.00145082
0.0,-0.0034521
0.0,1.81294e-07
0.0,-0.0164118
0.0,-0.00100541
0.0,-0.000421265
0.0,-0.000379713
0.0,-0.000602342
0.0,-0.000315814
0.0,0.00262864
0.0,-0.00034485
0.0,-0.000856984
0.0,-0.000351371
0.0,0.00311101
0.0,-0.000767565
0.0,-0.000776385
0.0,-0.000540958
0.0,-0.00111935
0.0,-0.000380993
0.0,-0.00102691
0.0,-0.000749013
0.0,-0.000274544
0.0,-0.000755061
0.0,-0.00109396
0.0,-6.35265e-05
0.0,-3.71559e-05
0.0,-0.000692198
0.0,-0.00130651
0.0,-0.000446638
0.0,-0.0191414
0.0,-0.000387674
0.0,-0.000640524
0.0,-0.000303144
0.0,-0.000964378
0.0,-0.000554659
0.0,-0.00101121
0.0,-0.000344824
0.0,-0.000662383
0.0,-0.000293704
0.0,-0.0107213
0.0,-0.00149414
0.0,-0.000614822
0.0,-0.000310822
0.0,-0.000507908
0.0,-0.000795228
0.0,0.060573
0.0,-8.81663e-05
0.0,-0.000759177
0.0,0.00229534
0.0,-0.0256076
0.0,-0.000172583
0.0,-0.000948818
0.0,7.0253e-05
0.0,-0.000620885
0.0,-0.000880622
0.0,0.000637092
0.0,-0.000304942
0.0,-0.000628508
0.0,-0.000163419
0.0,-0.000637736
0.0,-0.00955522
0.0,-0.000607129
0.0,-0.000879679
0.0,-2.75557e-05
0.0,-0.00160879
0.0,-0.00052937
0.0,-0.000296781
0.0,-0.000353747
0.0,0.000686046
0.0,-0.00060913
0.0,-7.02433e-05
0.0,-0.00096219
0.0,-0.000346024
0.0,-0.000121779
0.0,-0.000607201
0.0,-0.00151306
0.0,-0.000581867
0.0,-0.000611027
0.0,0.00150281
0.0,-0.000407837
0.0,-0.000885285
0.0,0.000351796
0.0,-0.000543403
0.0,-0.000598335
0.0,-0.00115492
0.0,-0.0013051
0.0,-0.00104368
0.0,-0.000122475
0.0,-0.000770477
0.0,-0.00096219
0.0,-0.00103451
0.0,-0.000238729
0.0,-0.00118166
0.0,8.68807e-05
0.0,-0.000700624
0.0,-0.000118944
0.0,-0.0011912
0.0005,-0.000877671
0.008,-0.000159217
0.0125,-0.000175129
0.0181818,0.000629025
0.02,6.50562e-05
0.02,0.000274613
0.0220513,0.00020067
0.0243333,7.71126e-05
0.025,9.21718e-05
0.028,0.000570295
0.03,0.000410047
0.03,0.000405988
0.03,0.000360216
0.0334,0.000411724
0.04,0.00090219
0.048,0.000129316
0.05,0.00116379
0.05,0.00152094
0.05,0.00162112
0.06,0.00270119
0.06,0.00267763
0.0625,0.0423992
0.0638298,0.0014292
0.0666667,0.00263062
0.0711111,0.0578413
0.075,0.00118809
0.08,0.00202804
0.08,0.00231937
0.08,0.00189012
0.083,0.00212998
0.09,0.00257411
0.09,0.00174071
0.1,0.0020016
0.1,0.00155023
0.1,0.0013742
0.1,0.00241974
0.1,0.00111032
0.1,0.0016034
0.1,0.00134431
0.1,0.00130984
0.1,0.00143391
0.1,0.00143667
0.1,0.00228908
0.100671,0.00168889
0.100671,0.00180214
0.101299,0.00122355
0.11,0.00164153
0.11,0.00415113
0.11,0.00208009
0.113208,0.00244493
0.117647,0.0661177
0.12,0.00199308
0.12,0.00515559
0.133333,0.00120072
0.136364,0.0818016
0.14,0.00214988
0.15,0.00286933
0.15,0.00102858
0.16,0.00145358
0.16,0.00214146
0.17,0.00288531
0.18,0.00186608
0.18,0.00152286
0.18,0.00116988
0.18,0.000998712
0.185,0.00144318
0.2,0.00277409
0.2,0.00153249
0.2,0.00129047
0.2,0.00227525
0.2,0.00118173
0.2,0.0031027
0.2,0.00204072
0.2,0.00194631
0.2,0.00100577
0.2,0.00137574
0.21,0.0024983
0.22,0.00134918
0.22,0.00131642
0.232,-0.0063791
0.24,0.00170636
0.246,0.00260376
0.25,0.0765949
0.25,0.00157333
0.26,0.00107417
0.276923,0.000831963
0.28,0.00158672
0.29697,0.000824154
0.3,0.00160404
0.3,0.000773833
0.3,-0.000227064
0.3,0.00107648
0.3,0.00140013
0.3,0.000842905
0.3,0.00133986
0.32,0.000632917
0.33,0.000649469
0.333333,0.000824472
0.333333,0.000911219
0.35,-0.000983627
0.36,0.00141498
0.361702,0.000924165
0.379939,0.00314056
0.38,-0.000874232
0.4,0.00126681
0.404959,0.000682507
0.42,0.00126124
0.42,0.00116425
0.46,-0.00148397
0.466,0.000250373
0.47,0.000569969
0.47,0.000611523
0.472727,0.000933607
0.48,0.000613291
0.485437,3.30944e-05
0.5,0.00153634
0.5,0.0137811
0.52,-0.00101531
0.524843,0.000918726
0.527778,-0.010827
0.529,0.00111013
0.533333,0.0265136
0.54,0.000585704
0.542005,0.000203798
0.5559,0.00038155
0.565789,-0.000684142
0.574713,5.20943e-05
0.58,0.000192784
0.6,0.000411004
0.6,0.000269405
0.6,0.000366716
0.6,0.00239099
0.6,0.00039825
0.6,0.000429811
0.6,0.00116606
0.6,-0.000936014
0.6,-0.000186572
0.6,0.000388728
0.6269,0.000608844
0.64,0.000257427
0.64,-0.000689093
0.6609,0.000979982
0.7,-5.52188e-08
0.7,0.000368388
0.716763,-1.02319e-05
0.73,2.52338e-08
0.73,0.000179319
0.73,0.000549375
0.77037,0.00028505
0.8,0.00062602
0.8,0.000303548
0.8,0.00113695
0.833333,-0.00164033
0.87,-3.48348e-05
0.88,-0.0147718
0.92,-0.0039786
0.967742,-0.000207436