File: KFI-RHO-LTA-UFI_paper/dependence_plot_data/RHO_NaSi.csv
Na/Si,SHAP value
0.0,-0.000287794
0.0,2.85491e-06
0.0,-0.000287794
0.0,0.000133087
0.0,-0.000153728
0.0,-0.000156724
0.0,-0.000529801
0.0,-0.00042931
0.0,-6.68375e-05
0.0,-5.30288e-07
0.0,-0.0001576
0.0,-0.000116926
0.0,-0.000425256
0.0,-0.00095491
0.0,-0.00196334
0.0,-0.000132393
0.0,-0.000560589
0.0,-0.000791721
0.0,-0.000185198
0.0,-0.000275816
0.0,-0.00154071
0.0,-0.000474184
0.0,-0.000279844
0.0,-0.000257389
0.0,-0.000282204
0.0,-0.000373863
0.0,-0.000148931
0.0,-0.000126727
0.0,-0.000314923
0.0,-0.000922869
0.0,-0.000106037
0.0,-2.39348e-05
0.0,-4.72499e-05
0.0,-0.000374576
0.0,-0.000661531
0.0,9.02902e-05
0.0,-0.000469486
0.0,-0.000259551
0.0,-0.000127172
0.0,-0.000130545
0.0,-0.000292484
0.0,-0.00048246
0.0,5.5484e-05
0.0,-0.000312933
0.0,-2.77977e-05
0.0,-0.000164359
0.0,-0.000183886
0.0,-0.00041076
0.0,-0.000228435
0.0,-0.000101444
0.0,-0.000457702
0.0,-0.000388507
0.0,-1.2011e-05
0.0,-0.000295905
0.0,-0.000436543
0.0,0.000157571
0.0,-0.000695629
0.0,-0.000557394
0.0,-3.97807e-05
0.0,-0.00149712
0.0,-0.000241076
0.0,-0.000568984
0.0,-0.000170724
0.0,-0.000470893
0.0,-0.000202291
0.0,2.17171e-05
0.0,-7.68286e-05
0.0,-0.000621631
0.0,-0.000124068
0.0,-0.000556598
0.0,-0.000195426
0.0,-0.000529251
0.0,-0.000419992
0.0,-3.58377e-05
0.0,-0.00106347
0.0,-0.000314741
0.0,-0.000613249
0.0,-0.000557177
0.0,-0.000581695
0.0,-7.68251e-05
0.0,-8.98853e-05
0.0,-0.000852343
0.0,-0.000131652
0.0,-0.000100274
0.0,-0.000573217
0.0,-0.000386129
0.0,-0.000226395
0.0,-0.000123852
0.0,-0.000327363
0.0,-0.000103662
0.0,-0.0003962
0.0,-0.000156384
0.0,-0.000643913
0.0,-0.00045457
0.0,-7.87325e-05
0.0,-0.000156325
0.0,-0.000167079
0.0,-0.000106037
0.0,-0.000461504
0.0,-9.64382e-05
0.0,-0.000131652
0.0,-0.000176522
0.0,-0.00044085
0.0,-0.00033262
0.0,-0.000447195
0.0,-0.000329635
0.0,-0.000220551
0.0,-0.000153728
0.0005,-1.38888e-05
0.008,0.000241804
0.0125,0.000259437
0.0181818,0.000160749
0.02,0.000379375
0.02,0.000253673
0.0220513,0.000311143
0.0243333,0.000444989
0.025,0.000343664
0.028,0.000100999
0.03,0.000241747
0.03,0.00035664
0.03,0.000356555
0.0334,0.000292907
0.04,0.000378771
0.048,-0.00125417
0.05,0.000362455
0.05,0.000379585
0.05,0.000559274
0.06,0.000586634
0.06,0.000438136
0.0625,0.000265102
0.0638298,0.000634908
0.0666667,0.000223389
0.0711111,0.000366828
0.075,-0.00178428
0.08,0.000326772
0.08,0.000284828
0.08,0.000292511
0.083,0.00070993
0.09,0.000662455
0.09,0.000533748
0.1,0.00101905
0.1,0.000540246
0.1,0.000866614
0.1,0.000664414
0.1,0.000737207
0.1,0.000899829
0.1,0.000831766
0.1,0.00134075
0.1,0.001231
0.1,0.000628126
0.1,0.000500909
0.100671,0.000662361
0.100671,0.000679405
0.101299,0.00225986
0.11,0.000725443
0.11,0.000461936
0.11,0.000550137
0.113208,0.00051532
0.117647,0.00059128
0.12,0.000572223
0.12,0.000768064
0.133333,0.000720996
0.136364,0.000641829
0.14,0.000571699
0.15,0.000849319
0.15,0.000692348
0.16,0.000851849
0.16,0.000686961
0.17,0.000596273
0.18,0.00076675
0.18,0.000797703
0.18,0.0515231
0.18,0.00076593
0.185,0.000658809
0.2,0.0007289
0.2,0.000839581
0.2,0.000735701
0.2,0.000650824
0.2,0.000684272
0.2,0.000375624
0.2,0.000514296
0.2,0.000596481
0.2,0.000740105
0.2,0.00129073
0.21,0.000785842
0.22,0.000679729
0.22,0.000718174
0.232,0.00087208
0.24,0.000621826
0.246,0.000587538
0.25,0.000541421
0.25,0.000778716
0.26,0.000897081
0.276923,0.000955891
0.28,0.000769066
0.29697,0.000657066
0.3,0.000704315
0.3,0.00101485
0.3,0.00109201
0.3,0.00138864
0.3,0.00108746
0.3,0.000880175
0.3,0.000619632
0.32,0.000825493
0.33,0.00100398
0.333333,0.000556482
0.333333,0.000595584
0.35,0.00325449
0.36,0.000580992
0.361702,0.00184939
0.379939,0.00167887
0.38,0.00095259
0.4,0.00055303
0.404959,-0.00309371
0.42,-0.000556722
0.42,0.000281886
0.46,0.000449176
0.466,0.00040115
0.47,1.51305e-05
0.47,1.14559e-05
0.472727,0.000212615
0.48,-0.00721967
0.485437,0.000566182
0.5,0.00032168
0.5,0.00023518
0.52,0.00130655
0.524843,0.00112438
0.527778,0.000544077
0.529,0.000315794
0.533333,0.00159269
0.54,-0.0024974
0.542005,0.000379017
0.5559,0.000193624
0.565789,0.000181572
0.574713,-8.88969e-05
0.58,0.00126436
0.6,-5.1401e-05
0.6,1.22413e-05
0.6,0.000245055
0.6,8.66943e-05
0.6,-6.01387e-05
0.6,-4.54584e-05
0.6,6.98194e-05
0.6,0.000343508
0.6,0.00169192
0.6,8.29117e-08
0.6269,5.91831e-05
0.64,0.000215252
0.64,0.000844106
0.6609,-4.26709e-05
0.7,-6.70823e-05
0.7,-0.000193739
0.716763,-0.000252283
0.73,-0.00036892
0.73,-0.000370867
0.73,-0.000124101
0.77037,-0.000222192
0.8,-0.000201825
0.8,0.000102899
0.8,-8.87726e-05
0.833333,-0.000317619
0.87,-0.000255224
0.88,-0.00204432
0.92,-0.000778855
0.967742,-0.000258248