File: KFI-RHO-LTA-UFI_paper/dependence_plot_data/RHO_Crystallization temp.csv
Crystallization temp,SHAP value
0.0,0.000479659
30.0,0.000856344
65.0,0.0024341
80.0,0.000962089
90.0,0.00212273
90.0,0.056828
90.0,0.00215686
100.0,0.00112627
100.0,0.00271317
100.0,-0.0169844
100.0,0.00210213
100.0,0.00394065
100.0,0.00469187
100.0,0.00111068
100.0,0.000790037
100.0,0.000998795
100.0,0.0551969
100.0,0.00242129
100.0,0.00195004
100.0,0.00224948
100.0,0.00104196
100.0,-0.0172165
100.0,0.00238249
100.0,0.0027024
100.0,0.0011761
100.0,0.00111096
100.0,0.00216145
100.0,0.0010242
110.0,0.036178
110.0,-0.0020579
110.0,-0.000667151
110.0,0.000859065
110.0,-0.000583315
115.0,0.000833683
120.0,0.000710613
120.0,0.000336545
120.0,0.000511371
120.0,-0.000795408
120.0,0.000298488
125.0,0.000213749
125.0,1.35842e-05
125.0,2.67926e-05
130.0,0.00145731
130.0,0.000438197
135.0,0.000378849
135.0,8.0264e-05
135.0,0.00015677
135.0,5.81493e-05
135.0,4.81049e-05
135.0,0.000461962
135.0,4.99104e-05
135.0,0.000245261
138.0,-9.77973e-05
140.0,0.000326632
140.0,0.000308777
140.0,-4.20515e-05
140.0,0.000347828
140.0,0.000373021
140.0,0.000207815
140.0,0.00024328
140.0,9.84901e-05
140.0,2.78904e-06
140.0,3.21707e-05
140.0,0.000449075
140.0,0.000132011
140.0,0.000159553
140.0,0.000145919
140.0,8.00788e-06
140.0,8.90176e-05
140.0,0.000133068
142.5,-0.000398723
142.813,9.39951e-06
145.0,-0.000170777
147.732,-0.000207979
150.0,-0.000739769
150.0,-0.000264847
150.0,-0.000285677
150.0,-0.00119381
150.0,-0.000484997
150.0,-0.000134192
150.0,-0.000245595
150.0,-0.000611425
150.0,-0.000128351
150.0,-0.000434454
150.0,-0.000170468
150.0,-0.000379582
150.0,-0.000291643
150.0,-0.000280553
150.0,-0.000194333
150.0,-0.000120524
150.0,-0.000420737
150.0,-0.000233286
150.0,-0.000767467
150.0,-0.000428941
150.0,1.83285e-07
150.0,-0.00048133
150.0,-0.000233745
150.0,-0.000257324
150.0,-0.00029183
150.0,-0.000701136
150.0,-0.000248469
150.0,-0.000429283
150.0,-0.000238759
150.0,-0.0092443
150.0,-0.000420289
150.0,-0.000513095
150.0,-0.000275887
150.0,-0.00130767
150.0,-0.00100558
150.0,-0.000735359
150.0,-0.000664131
150.0,-0.000408103
150.0,-0.00115528
150.0,-0.000404617
158.0,-0.000767373
160.0,-0.000646332
160.0,-0.000430208
160.0,-0.000634451
160.0,-0.00045088
160.0,-0.000553531
160.0,-0.000504414
160.0,-0.00119329
160.0,-0.000281499
160.0,-0.000534937
160.0,-0.000703945
160.0,-0.000666708
160.0,-0.00039023
160.0,-0.00061836
160.0,-0.000880005
160.0,-0.000453234
160.0,-0.0011522
160.0,-0.00028486
160.0,-0.000489123
160.0,-0.000588504
160.0,-0.00344736
160.0,-0.000823821
160.0,-0.000698955
160.0,-0.00100687
160.0,-0.000335421
160.0,-0.000554153
160.0,-0.000861652
160.0,-0.000274197
160.0,-0.000191624
160.0,-0.0003504
160.0,-0.000664665
160.0,-0.000588638
160.0,-0.000343381
160.0,-0.000333689
160.0,-0.000572149
160.0,-0.000378746
160.0,-0.000938098
160.0,-0.000492631
160.0,-0.000512738
160.0,-0.000347537
160.0,-0.00042101
160.0,-0.000537019
160.0,-0.00055965
160.0,-0.000591594
160.0,-0.000409867
160.0,-0.000333689
160.0,-0.00065306
160.0,-0.000507076
160.0,-0.000564084
160.0,-0.000656165
160.0,-0.000495474
160.0,-0.00034193
160.0,-0.000624284
160.0,-0.00396148
160.0,-0.000559591
160.0,-0.000395367
160.0,-0.000320169
160.0,-0.000556668
160.0,-0.000581608
160.0,-0.000327847
160.0,-0.000282357
160.0,-0.000282357
160.0,-0.000370843
160.0,-0.000707735
160.0,-0.000351043
160.0,-0.000551047
165.0,-0.000404509
165.0,-0.00314444
170.0,-0.000567372
170.0,-0.000592824
170.0,-0.000594213
170.0,-0.000482744
170.0,-0.000361422
170.0,-0.00261121
170.0,-0.000530732
170.0,-0.00174538
170.0,-0.00058827
170.0,-0.00759383
170.0,-0.00242572
170.0,-0.000517976
170.0,-0.00126147
170.0,-0.000482237
170.0,-0.000389833
170.0,-0.000732469
170.0,-0.000342115
170.0,-0.000458231
170.0,-0.00149855
170.0,-0.00139435
170.0,-0.000984253
170.0,-0.00100443
170.0,-0.000382287
170.0,-0.000539374
170.0,-0.000462093
175.0,-0.00279705
175.0,-0.000610929
175.0,-0.000337135
175.0,-0.000407647
175.0,-0.000419865
175.0,-0.000496674
175.0,-0.00086284
175.0,-0.000647711
175.0,-0.000679862
175.0,-0.00060481
175.0,-0.00032984
175.0,-0.00067643
175.0,-0.000352586
175.0,-0.000353343
175.0,-0.000623784
175.0,-0.000531708
175.0,-0.000341866
175.0,-0.000648859
175.0,-0.000507185
175.0,-0.000538024
175.0,-0.0030187
175.0,-0.000600716
175.0,-0.000628751
175.0,-0.000917656
175.0,-0.000540911
175.0,-0.000433703
175.0,-0.000376991
175.0,-0.000335147
175.0,-0.000326411
175.0,-0.000522411
175.0,-0.000392829
175.0,-0.000586868
175.0,-0.000630858
175.0,-0.000402832
175.0,-0.000657783
175.0,-0.00131131
175.0,-0.0003154
180.0,-0.000758227
180.0,-0.00076032
180.0,-0.00150238
180.0,-0.000607458
180.0,-0.000592464
180.0,-0.000559028
180.0,-0.000260823
180.0,-0.000793138
180.0,-0.000831743
180.0,-0.00129303
180.0,-0.000290783
180.0,-0.00163764
180.0,-0.000513202
180.0,-0.000738793
190.0,-0.000673975
190.0,-0.000729937
190.0,-0.000716496
200.0,-0.000477319
200.0,-0.000368219
214.891,-0.000595964
500.0,-0.000786195