File: KFI-RHO-LTA-UFI_paper/dependence_plot_data/RHO_OHSi.csv
OH/Si,SHAP value
0.0,0.00117155
0.0,0.000316395
0.0,0.000406753
0.0,0.000362608
0.0,0.000491044
0.0,0.000501903
0.0,0.000369526
0.0,0.000857885
0.0,0.000434061
0.0,0.000550731
0.0,0.00440847
0.0,0.00100061
0.0,0.000402012
0.0,0.000224365
0.0,0.000306526
0.0,0.000484452
0.0,0.000454234
0.0,0.000766096
0.0,0.000481699
0.0,0.000452927
0.0,0.00032412
0.0,0.000556526
0.0,0.000812338
0.0,0.000438085
0.0,0.000725234
0.0,0.000420531
0.0,0.000644836
0.0,0.000368774
0.0,0.00067857
0.0,0.000361374
0.0,0.000890865
0.0,0.000488812
0.0,0.000537343
0.0,0.000757388
0.0,0.000433911
0.0,0.000608997
0.0,0.000699411
0.0,0.00107844
0.0,0.000934594
0.0,0.00060193
0.0,0.000684274
0.0,0.000566244
0.0,0.000520179
0.0,0.000357452
0.0,0.000557597
0.0,0.000351309
0.0,0.00063875
0.0,0.000595848
0.0,0.0004379
0.0,0.00060539
0.0,0.000438085
0.0,0.000473276
0.0,0.00055812
0.0,0.000610775
0.0,0.000360437
0.0,0.000481005
0.0,0.00042298
0.0,0.000629791
0.0,0.000393638
0.00260833,0.000547428
0.016,0.0003967
0.02,0.0014029
0.024,0.000411697
0.024,0.00039041
0.0313,0.00051624
0.036,0.000791401
0.04,0.000505701
0.04,0.000525569
0.0420875,0.000500636
0.048,0.000580775
0.048,0.000503106
0.05,0.000963315
0.056,0.000390979
0.060024,0.000537196
0.064,0.000504333
0.0664,0.000570919
0.07,0.000220373
0.072,0.000106547
0.075,-0.00619284
0.08,0.000316071
0.08,0.000220437
0.088,0.000145429
0.088,0.000147848
0.088,0.000119926
0.088,9.11874e-05
0.0933333,0.000333395
0.096,0.000127653
0.1,0.000225125
0.1,0.000225184
0.1,0.000171331
0.11039,0.000113961
0.112,8.67101e-05
0.12,2.69141e-05
0.12,0.00013743
0.125,1.19947e-05
0.133333,6.98609e-05
0.142857,5.48513e-05
0.144,9.59996e-06
0.144,-0.00255062
0.144,0.000398252
0.148,7.44871e-05
0.15,1.79964e-05
0.152,8.25211e-05
0.16,4.157e-05
0.16,4.45273e-05
0.16,3.01846e-05
0.16,0.000103465
0.16,2.56509e-05
0.166667,-3.38987e-05
0.172,0.000119797
0.176,2.27521e-06
0.178,0.000170416
0.18,6.13856e-05
0.18,-2.21211e-05
0.183908,0.000291739
0.189394,-6.03709e-05
0.191667,0.000463605
0.192,9.2391e-06
0.2,-1.34749e-05
0.2,-1.97278e-05
0.2,-0.00021012
0.2,-0.000319167
0.2,-3.23661e-06
0.2,9.24803e-06
0.2,-0.000121632
0.2,9.63799e-06
0.2,7.77587e-05
0.2,2.58194e-05
0.2,-5.37582e-05
0.2,-4.56548e-06
0.2,3.54984e-05
0.2,-1.27517e-05
0.21,0.000204026
0.22,2.08603e-05
0.228,-0.000148505
0.24,-2.15358e-06
0.24,-5.25432e-05
0.24,-6.34214e-05
0.244966,-0.000210781
0.244966,-2.42133e-05
0.246,2.73874e-05
0.25,1.02471e-05
0.25,-3.49101e-05
0.256,-0.000159762
0.26,0.00146014
0.27,1.57939e-05
0.28,0.00118429
0.287977,-0.000114255
0.299963,-0.00270411
0.3,2.43562e-05
0.3,-0.00165594
0.3,0.000109171
0.3,-3.2461e-05
0.3,-0.000102779
0.3,-7.60331e-05
0.3,-3.55475e-05
0.303951,3.50896e-06
0.3125,-0.000117884
0.32,-0.000252664
0.32,-0.000240595
0.32,-0.000261686
0.324333,-0.000383063
0.33,-0.000399252
0.333333,-0.000520801
0.336,-0.0121582
0.34,-0.000205333
0.34,-0.000222024
0.35,-0.000121414
0.351958,-5.68845e-05
0.36,6.76289e-06
0.363,-0.000210803
0.372,-7.81568e-06
0.384,-0.0121693
0.384615,-0.000109066
0.4,-0.000191667
0.4,-0.000292434
0.4,-3.54521e-05
0.4,-0.00411329
0.4,8.36331e-06
0.4,-0.000394322
0.4,-0.000113709
0.4,-8.45488e-06
0.4,-0.000452506
0.4,0.00126633
0.4,-0.000197362
0.4,-0.000335509
0.415385,-0.00012989
0.42,-0.00021697
0.43,-0.000271861
0.44,-0.000178052
0.45,-4.58822e-05
0.45,-5.93075e-05
0.452632,-0.000268899
0.46,-5.57264e-05
0.479904,0.0003741
0.48,0.000625572
0.485437,0.000445931
0.495283,-3.82623e-05
0.5,1.7601e-05
0.5,-0.000387538
0.5,-6.26975e-05
0.5,-1.94532e-05
0.5,-5.35671e-05
0.5,-6.134e-05
0.50104,-0.000177851
0.507614,9.76463e-06
0.512,0.000512756
0.51872,-6.01295e-05
0.520833,-6.7873e-05
0.52872,2.77736e-05
0.533333,0.000351232
0.542005,3.06698e-05
0.55,1.88007e-05
0.56,-0.000302733
0.571429,-0.00012928
0.575,-0.000461024
0.587,-0.00019885
0.6,-0.000171646
0.6,-0.000319808
0.6,-0.000147927
0.6,-0.000198293
0.616,-0.000431758
0.62,-0.000392384
0.64,-0.000355005
0.663415,0.00328629
0.67,-0.000321697
0.69,-0.000181757
0.7,-0.000343162
0.72,-0.000265981
0.736,-0.00124671
0.753,-0.000586775
0.757576,-0.000282607
0.8,-0.000530961
0.8,-0.000267974
0.8,-0.000365721
0.8,-0.000456743
0.8,-0.000406279
0.8,-0.00239944
0.8,-0.000530899
0.816049,-0.00115071
0.867925,-0.000439238
0.88,-0.00115772
0.913,-0.000434575
0.93,-0.000413695
0.957,-0.00042397
1,-0.000630041
1.00694,-0.000611791
1.04,-0.000627237
1.0625,-0.000484202
1.1,-0.000375128
1.2,-0.000543355
1.25,-0.000267888
1.31,-0.000459596
1.52,-0.00133839
1.6,-0.0011497
2,-0.0018948
2.0,-0.000377689
2.0,-0.000351913
2.17647,-0.000522417
2.47667,-0.000535347
3,-0.000536893
3.2,-0.000308316
8,-0.000507801
12.8,-0.0021842
358.4,-0.000391051