File: KFI-RHO-LTA-UFI_paper/dependence_plot_data/RHO_H2OSi.csv
H$_2$O/Si,SHAP value
0.0,0.00103893
0.0,0.000971228
0.0,0.00102748
0.0,0.000224078
0.0,0.00117215
0.0,0.000610286
0.0,0.00104494
0.0,0.000796458
0.0,0.000587833
0.0,0.000914595
0.0,0.00101147
0.0,0.00087588
0.0,0.000744208
0.0,0.000735401
0.388889,0.00105888
1.0,0.00328632
1.80072,0.00140173
2.04082,0.000832764
2.13333,0.00093037
2.5,0.00163069
2.85714,0.000975349
3.0,0.000765974
3.06,0.000922423
3.29997,0.000846663
3.3,0.000975539
3.75,0.000875551
4.21053,0.00104423
4.54545,0.000782242
4.54545,0.000794798
4.74716,0.000641358
4.78723,0.000642637
4.89362,0.000997883
5,0.00147194
5,0.000746258
5,0.000846593
5,0.00112506
5.0,0.000999141
5.0,0.000717721
5,0.000846703
5,0.000937285
5,0.000664927
5.01667,0.000714631
5.17857,0.000863122
5.33333,0.000874871
5.6,0.000756623
5.9727,0.00084769
6.25,0.00208057
6.66667,0.00213287
7,0.000838871
7.0,0.000975717
7,0.0013164
7.25,0.00173669
7.5,0.000966772
7.69992,0.00142916
7.69992,0.00104954
8.16667,0.00100697
8.75,0.00452799
9.0,0.00478826
9.5,0.00316341
9.82,0.000856662
10,0.00291085
10.0,0.00334088
10.0,0.00094619
10.0,0.00108234
10.0,0.0677661
10.0,0.00126611
10.0,0.00291854
10.0,0.00108234
10,0.00485624
10,0.000958655
10.5042,0.000598237
10.6061,0.000679572
10.6667,0.000654812
10.673,-0.0131248
11.0,0.000826755
11.3,0.000503801
11.6,0.00019003
11.9585,0.000530694
12.3457,0.000175394
12.6875,2.19267e-05
13,2.75086e-05
13.5,-0.00283446
13.6459,-6.75523e-05
14,-0.000459335
14.0,0.000360618
14.0,-4.17167e-05
14.7059,-0.000247583
15,-0.000120444
15,-0.000121915
15,-0.000168223
15,-0.000221351
15,-0.000161258
15.0,-0.000434767
15.0,-0.000251313
15.0,-0.000294363
15.0,-0.000372434
15.0,-0.000712744
15,-9.73862e-05
15,-0.000278825
15,-0.00208508
15.5,-0.000239613
15.8,-0.00500154
16.0,-0.000591695
16,-0.00537629
16.4998,-0.000452371
16.4998,-0.000507984
16.6667,-0.00143238
16.6667,-0.000553563
16.6667,-0.000173567
17.5,-0.0052864
18.0,-0.00119813
19.2,-0.00050582
19.5,-0.000534009
19.5,-0.000550575
20,-0.00058601
20,-0.000579815
20,-0.000354883
20,-0.00059107
20,-0.00109957
20.0,-0.000685524
20.0,-0.000552214
20.0,-0.000499857
20.0,-0.00070883
20.0,-0.000456818
20,-0.00604194
20,-0.000582546
20,-0.00117124
20.4,-0.001235
21,-0.00066997
21.135,-0.000583683
22,-0.000391461
22.5,-0.000366784
22.7273,-0.000641487
23.5189,-0.000795037
23.8095,-0.000694684
24.434,-0.00105052
25,-0.000502766
25,-0.000618851
25.0,-0.000656378
25,-0.00182693
26.0,-0.000520917
27,-0.000855054
27.9444,-0.000913749
28,-0.00106996
30,-0.000501504
30,-0.000518098
30,-0.000773091
30,-0.000698804
30,-0.000595746
30,-0.000561434
30,-0.000637153
30,-0.000711862
30,-0.000581216
30,-0.000859901
30,-0.000563699
30.0,-0.000628285
30.0,-0.000981238
30.0,-0.000505056
30.0,-0.000546944
30.0,-0.000628158
30.0,-0.000527612
30.0,-0.000612172
30,-0.000611275
30,-0.000841792
30,-0.000701211
30,-0.000855595
30,-0.000573475
30,-0.000703258
30,-0.000470995
30,-0.000596073
30,-0.000718339
30.45,-0.000786089
31,-0.000489491
31.2,-0.000903526
33.2,-0.000875948
35,-0.000577522
35,-0.0010509
35,-0.00114702
35,-0.000575413
35.0,-0.00135257
35.0,-0.000791923
35,-0.000456627
35.04,-0.00056803
35.5625,-0.000895662
36,-0.000930729
36.7816,-0.000951824
37.182,-0.000663875
37.8788,-0.000534322
38.0711,-0.000558247
38.6287,-0.000512789
40,-0.000572534
40,-0.00134494
40,-0.000628382
40,-0.000679009
40,-0.0014387
40,-0.000585986
40.0,-0.000596956
40.0,-0.000967862
40.0,-0.000596801
40.0,-0.000903459
40.0,-0.000782146
40.0,-0.00057841
40.0,-0.000484345
40.0,-0.00054353
40.0,-0.000962642
40.0,-0.000701348
40,-0.000526451
40,-0.000586243
40,-0.00108788
40,-0.000503463
40,-0.000808142
40,-0.000634225
40,-0.000586679
40,-0.000599204
40,-0.00128225
40,-0.000961473
40.3297,-0.000421616
40.8889,-0.00110252
41.5,-0.000777337
42,-0.000489722
42,-0.000858636
42.0,-0.000562753
42.3077,-0.000815486
43.5714,-0.000605534
43.7584,-0.00130188
43.7584,-0.00115591
44,-0.000761574
44.0,-0.000716543
44,-0.000605562
45,-0.000905815
45.0,-0.000729315
45.0,-0.000535543
45,-0.000709985
45,-0.00061245
45.4545,-0.000958754
45.4545,-0.00070475
45.72,-0.00150673
47,-0.000583728
50,-0.000608798
50,-0.000755575
50,-0.00115794
50,-0.000755479
54,-0.000771069
57,-0.000639009
58.6538,-0.00131717
60,-0.00287883
60,-0.00251363
60,-0.000838705
64,-0.00081284
68.8119,-0.00195246
76.9231,-0.00102113
84,-0.0043886
95,-0.000737764
100,-0.00101918
100.0,-0.000985628
100.0,-0.00161462
100,-0.00134178
108.824,-0.00132408
120.0,-0.00149265
136.25,-0.00280156
174.0,-0.00103828
200.0,-0.00130709
250,-0.000754405
410,-0.000941772
714.286,-0.00107933