File: KFI-RHO-LTA-UFI_paper/dependence_plot_data/RHO_CsSi.csv
Cs/Si,SHAP value
0.0,-0.00495918
0.0,-0.000571993
0.0,-0.000751856
0.0,-0.00174776
0.0,-0.000461233
0.0,-0.0299364
0.0,-0.0011419
0.0,-0.000636449
0.0,-0.000654812
0.0,-0.00071539
0.0,-0.000649316
0.0,-0.000904337
0.0,-0.000972419
0.0,-0.000668996
0.0,-0.000819712
0.0,-0.000627718
0.0,-0.000620481
0.0,-0.000576814
0.0,-0.00199299
0.0,-0.000615819
0.0,-0.000778457
0.0,-0.000607716
0.0,-0.000606152
0.0,-0.000671005
0.0,-0.000439005
0.0,-0.000873811
0.0,-0.000985268
0.0,-0.000710256
0.0,-0.00592024
0.0,-0.000661513
0.0,-0.000671208
0.0,-0.000961567
0.0,-0.000539897
0.0,-0.000635633
0.0,-0.000644623
0.0,-0.000594934
0.0,-0.000557035
0.0,-0.000617839
0.0,-0.00131114
0.0,-0.000619654
0.0,-0.000535457
0.0,-0.0122285
0.0,-0.000593134
0.0,-0.00197542
0.0,-0.000814238
0.0,-0.00142993
0.0,-0.000505801
0.0,-0.000494588
0.0,-0.000969501
0.0,-0.000844604
0.0,-0.00094181
0.0,-0.00262371
0.0,-0.000778499
0.0,-0.000611326
0.0,-0.000370204
0.0,-0.000541149
0.0,-0.00132354
0.0,-0.000851948
0.0,-0.000571538
0.0,-0.000977254
0.0,-0.00111877
0.0,-0.000552155
0.0,-0.0122745
0.0,-0.000650227
0.0,-0.0012584
0.0,-0.000640701
0.0,-0.00249601
0.0,-0.00294005
0.0,-0.000775517
0.0,-0.000647987
0.0,-0.000518872
0.0,-0.0013024
0.0,-0.000595928
0.0,-0.000477233
0.0,-0.000546987
0.0,-0.00102575
0.0,-0.00065066
0.0,-0.000765289
0.0,-0.000594779
0.0,-0.000690121
0.0,-0.000996904
0.0,-0.00722076
0.0,-0.00056773
0.0,-0.000480818
0.0,-0.0018437
0.0,-0.00089558
0.0,-0.00054294
0.0,-0.00141024
0.0,-0.000488177
0.0,-0.000493333
0.0,-0.000867681
0.0,-0.000595707
0.0,-0.000421121
0.0,-0.00060351
0.0,-0.000935327
0.0,-0.000579483
0.0,-0.00816117
0.0,-0.00106477
0.0,-0.00283453
0.0,-0.000800373
0.0,-0.00114261
0.0,-0.000554835
0.0,-0.000622092
0.0,-0.000528733
0.0,-0.00103656
0.0,-0.000601037
0.0,-0.000437217
0.0,-0.000494977
0.0,-0.000525293
0.0,-0.00129982
0.0,-0.000688914
0.0,-0.000984307
0.0,-0.00159275
0.0,-0.00130205
0.0,-0.000714374
0.0,-0.00127623
0.0,-0.00105641
0.0,-0.00100418
0.0,-0.000898875
0.0,-0.000761391
0.0,-0.000732434
0.0,-0.000483349
0.0,-0.000596279
0.0,-0.000625779
0.0,-0.00957926
0.0,-0.000594039
0.0,-0.00138036
0.0,-0.00114857
0.0,-0.000415254
0.0,-0.000669402
0.0,-0.000567103
0.0,-0.000689545
0.0,-0.000588674
0.0,-0.000820633
0.0,-0.00059163
0.0,-0.00152569
0.0,-0.00276842
0.0,-0.00145389
0.0,-0.000494722
0.0,-0.00185237
0.0,-0.00127227
0.0,-0.000659129
0.0,-0.00169716
0.0,-0.00129051
0.0,-0.00064002
0.0,-0.000469836
0.0,-0.00113768
0.0,-0.00148491
0.0,-0.000523429
0.0,-0.00299577
0.0,-0.000541329
0.0,-0.0027713
0.0,-0.000499126
0.0,-0.000640278
0.0,-0.000735926
0.0,-0.000781004
0.0,-0.000694313
0.0,-0.000448815
0.0,-0.00055135
0.0,-0.000799468
0.0,-0.000593311
0.0,-0.000548415
0.0,-0.000587015
0.0,-0.00102131
0.0,-0.000507571
0.0,-0.000674035
0.0,-0.000575802
0.0,-0.000752403
0.0,-0.000655733
0.0,-0.000611275
0.0,-0.000468128
0.0,-0.00231559
0.0,-0.000664373
0.0,-0.000462657
0.0,-0.00067332
0.0,-0.000971213
0.0,-0.000677895
0.0,-0.000681227
0.0,-0.000821381
0.0,-0.00107458
0.0,-0.00124069
0.0,-0.000659782
0.0,-0.00071377
0.0,-0.000566023
0.0,-0.000598076
0.0,-0.000568734
0.0,-0.000734567
0.0,-0.000950947
0.0,-0.00206609
0.0,-0.000575644
0.0,-0.000743789
0.0,-0.000757024
0.0,-0.000650765
0.0,-0.000622833
0.0,-0.00303454
0.0,-0.000630701
0.0,-0.000437224
0.0,-0.000593233
0.0,-0.00203337
0.0,-0.000569016
0.0,-0.000573339
0.0,-0.00169091
0.0,-0.000689669
0.0,-0.000967425
0.0,-0.000812037
0.0,-0.000808176
0.0,-0.000614451
0.0,-0.000713071
0.0,-0.000430641
0.0,-0.000449724
0.0,-0.000698298
0.0,-0.0005234
0.0,-0.00160837
0.0,-0.000641707
0.0,-0.00150745
0.0,-0.000678974
0.0,-0.000391287
0.0,-0.00122321
0.0,-0.000685528
0.0,-0.000769788
0.0,-0.000655249
0.0,-0.000715689
0.0,-0.000562083
0.0,-0.000556088
0.0,-0.000675454
0.0,-0.00323072
0.0,-0.000851463
0.0,-0.000667915
0.0,-0.000745935
0.0,-0.000611631
0.0,-0.00111586
0.0,-0.000671433
0.0,-0.0105388
0.0,-0.000661197
0.0,-0.000841906
0.0,-0.000689669
0.0,-0.000939392
0.0,-0.000502065
0.0,-0.000548581
0.0,-0.000610908
0.0,-0.000489321
0.0,-0.000877118
0.0,-0.000611387
0.0,-0.000455562
0.0,-0.000568182
0.0,-0.00321213
0.0,-0.000547415
0.0,-0.000581056
0.0,-0.000578837
0.0,-0.00086645
0.0,-0.00113415
0.0,-0.00248373
0.0,-0.000631548
0.0,-0.000651196
0.0,-0.000853637
0.0,-0.00200185
0.0290625,0.131928
0.06,0.11997
0.1,0.020897
0.167,0.00283482
0.33,0.00416131
0.333,0.00414031
0.5,0.00394149
0.5,0.00279184
16,0.00493608