File: KFI-RHO-LTA-UFI_paper/dependence_plot_data/UFI_Crystallization temp.csv
Crystallization temp,SHAP value
0.0,-0.000282741
30.0,-0.00225493
65.0,-0.000294584
80.0,-0.00125235
90.0,-0.00020074
90.0,-0.000317752
90.0,-0.000206589
100.0,-0.0011213
100.0,-0.000173922
100.0,-0.000303473
100.0,-0.000143858
100.0,-0.000304424
100.0,2.74162e-05
100.0,-0.000255001
100.0,-0.000337159
100.0,-0.000734663
100.0,-0.000340759
100.0,-0.000125358
100.0,-0.00014408
100.0,-0.000180352
100.0,-3.53745e-05
100.0,-0.000303473
100.0,-0.000257413
100.0,-0.00028164
100.0,-0.000736825
100.0,-0.000472785
100.0,-0.000279607
100.0,-0.00287637
110.0,-0.000297628
110.0,-0.000364566
110.0,-0.000288044
110.0,-0.000512341
110.0,-0.000288122
115.0,-0.00133317
120.0,4.11439e-05
120.0,-0.00640656
120.0,7.34718e-05
120.0,0.000167542
120.0,0.000623066
125.0,0.000535542
125.0,0.000742922
125.0,0.000736619
130.0,0.00029533
130.0,0.000289423
135.0,0.000449402
135.0,0.000279364
135.0,0.000475451
135.0,0.000254362
135.0,0.000713911
135.0,0.000244044
135.0,0.000255764
135.0,0.000339451
138.0,0.000299968
140.0,0.000361183
140.0,0.000282642
140.0,0.000329412
140.0,0.000251069
140.0,0.000305444
140.0,0.000247604
140.0,0.000280394
140.0,0.000905585
140.0,0.000319453
140.0,0.000320968
140.0,0.000498724
140.0,0.000939128
140.0,0.000332685
140.0,0.000334524
140.0,0.000321169
140.0,0.00055377
140.0,0.00068705
142.5,0.000117234
142.813,0.000227673
145.0,0.00235161
147.732,0.000433931
150.0,0.000404511
150.0,0.000277158
150.0,0.000297165
150.0,0.00048367
150.0,0.00035972
150.0,0.00028383
150.0,0.000430132
150.0,0.000351554
150.0,0.000247642
150.0,0.000579417
150.0,0.000368617
150.0,0.000263779
150.0,0.000375568
150.0,0.000329352
150.0,0.000365632
150.0,0.000281677
150.0,0.000400342
150.0,0.000266359
150.0,0.000202629
150.0,0.000289324
150.0,-0.000177258
150.0,0.000673192
150.0,0.000432393
150.0,0.000376688
150.0,0.000243232
150.0,0.000438463
150.0,0.000620199
150.0,0.000499692
150.0,0.000593458
150.0,0.000376002
150.0,0.000400183
150.0,0.000374733
150.0,0.000240092
150.0,0.000347386
150.0,0.000716633
150.0,0.000556567
150.0,0.000269496
150.0,0.000247343
150.0,0.000172001
150.0,0.000524058
158.0,-3.02441e-05
160.0,-0.000484902
160.0,-8.90842e-05
160.0,-8.03087e-05
160.0,0.000270828
160.0,0.00013655
160.0,2.0159e-06
160.0,7.65282e-05
160.0,3.78568e-05
160.0,0.000123048
160.0,2.39713e-05
160.0,5.36941e-05
160.0,1.83821e-05
160.0,-6.97994e-05
160.0,3.18703e-05
160.0,1.11489e-05
160.0,1.90672e-05
160.0,2.84125e-05
160.0,7.04925e-05
160.0,9.11616e-05
160.0,4.1504e-05
160.0,9.15831e-05
160.0,3.25439e-05
160.0,2.8506e-05
160.0,4.25668e-06
160.0,0.000112674
160.0,2.70285e-05
160.0,2.7211e-05
160.0,3.14916e-05
160.0,8.7229e-05
160.0,-2.54023e-05
160.0,8.62601e-06
160.0,0.000188444
160.0,2.91806e-05
160.0,7.76772e-05
160.0,1.96287e-05
160.0,2.73867e-05
160.0,3.35046e-05
160.0,2.88907e-05
160.0,0.000127227
160.0,0.000101332
160.0,8.46601e-05
160.0,8.14458e-05
160.0,-7.50217e-05
160.0,7.27785e-05
160.0,2.91806e-05
160.0,-4.11245e-05
160.0,3.16109e-05
160.0,3.48813e-05
160.0,6.39678e-05
160.0,5.37601e-05
160.0,0.000408599
160.0,0.000144896
160.0,-1.7884e-05
160.0,-7.69029e-05
160.0,0.000238707
160.0,4.39802e-06
160.0,-1.78507e-05
160.0,5.56294e-05
160.0,-1.02196e-05
160.0,2.12084e-05
160.0,2.10085e-05
160.0,1.12549e-05
160.0,3.94554e-05
160.0,2.52978e-05
160.0,-9.33673e-06
165.0,-5.26797e-05
165.0,-0.000109265
170.0,-7.67048e-05
170.0,-0.000112347
170.0,-0.000178096
170.0,-0.000209652
170.0,-0.000177207
170.0,-6.50853e-05
170.0,-0.00424718
170.0,-0.000196583
170.0,-9.31877e-05
170.0,-0.000111406
170.0,-0.000156935
170.0,-0.00029514
170.0,-0.000110564
170.0,-0.00155412
170.0,-0.000137677
170.0,-8.82152e-05
170.0,-0.000104667
170.0,-0.000197521
170.0,-0.000130845
170.0,-0.000279002
170.0,-0.00013253
170.0,-0.000128942
170.0,-7.98337e-05
170.0,-9.02412e-05
170.0,-0.000199562
175.0,-0.000139654
175.0,-0.000166398
175.0,-0.000143649
175.0,-0.000257028
175.0,-0.000133788
175.0,-0.000182542
175.0,-0.000193107
175.0,-0.000114898
175.0,-0.000139453
175.0,-0.000182228
175.0,-0.000135569
175.0,-0.000194885
175.0,-0.000140282
175.0,-0.000136999
175.0,-0.000137735
175.0,-0.000128298
175.0,-0.000143842
175.0,-0.000128025
175.0,-0.000105656
175.0,-0.000107967
175.0,-0.000279573
175.0,-0.00013337
175.0,-0.000135226
175.0,-0.000213828
175.0,-0.000149867
175.0,-0.000191133
175.0,-0.000940379
175.0,-0.000137503
175.0,-6.46916e-05
175.0,-0.000125232
175.0,-0.000147961
175.0,-0.000223587
175.0,-0.00011291
175.0,-0.000111379
175.0,-0.000145128
175.0,-7.2345e-05
175.0,-0.000283525
180.0,-0.000179565
180.0,-0.000591579
180.0,-0.000117819
180.0,-0.000223834
180.0,-0.000147213
180.0,-0.000158669
180.0,-0.000152782
180.0,-0.000398492
180.0,-0.000329385
180.0,-0.000210446
180.0,-9.69915e-05
180.0,-0.000246019
180.0,-0.000557253
180.0,-0.000151047
190.0,-0.000270663
190.0,-0.000504246
190.0,-0.00039656
200.0,-0.00139228
200.0,-0.00705728
214.891,-0.000202098
500.0,-0.000702476