File: KFI-RHO-LTA-UFI_paper/dependence_plot_data/UFI_OHSi.csv
OH/Si,SHAP value
0.0,-0.000379233
0.0,-0.000590023
0.0,-0.000416473
0.0,-0.000506105
0.0,-0.000535587
0.0,-0.000926062
0.0,-0.00132183
0.0,-0.000400345
0.0,-0.000481235
0.0,-0.000853468
0.0,-0.000329061
0.0,-0.000944016
0.0,-0.000649269
0.0,-0.000835517
0.0,-0.000421023
0.0,-0.000430028
0.0,-0.000673846
0.0,-0.000407665
0.0,-0.000472226
0.0,-0.000669963
0.0,-0.000527081
0.0,-0.000206747
0.0,-0.000412542
0.0,-0.000672132
0.0,-0.000351805
0.0,-0.00051434
0.0,-0.000346242
0.0,-0.000506417
0.0,-0.000443775
0.0,-0.000863116
0.0,-0.000395516
0.0,-0.001125
0.0,-0.000318508
0.0,-0.000453864
0.0,-0.000510238
0.0,-0.000388435
0.0,-0.00037756
0.0,-0.000512626
0.0,-0.000409254
0.0,-0.000366818
0.0,-0.000486327
0.0,-0.000327117
0.0,-0.000414993
0.0,-0.00138491
0.0,-0.000751395
0.0,-0.00052162
0.0,-0.000315506
0.0,-0.000336222
0.0,-0.000564901
0.0,-0.000321138
0.0,-0.000672132
0.0,-0.00044043
0.0,-0.000809401
0.0,-0.000339973
0.0,-0.000528138
0.0,-0.000757396
0.0,-0.000576182
0.0,-0.000427703
0.0,-0.000647267
0.00260833,-0.000431316
0.016,-0.000463675
0.02,-0.000274685
0.024,-0.000393254
0.024,-0.000468365
0.0313,-0.000482895
0.036,-0.000566659
0.04,-0.0018882
0.04,-0.000329683
0.0420875,-0.000426312
0.048,-0.000229237
0.048,-0.000193782
0.05,-0.00035198
0.056,-0.000424457
0.060024,-0.000418789
0.064,-0.000107713
0.0664,-0.000110895
0.07,-0.000405265
0.072,-0.000167244
0.075,-0.000347902
0.08,-0.000823744
0.08,-0.000393395
0.088,-0.000280329
0.088,-0.000276592
0.088,-0.00078874
0.088,-0.000353767
0.0933333,-0.000516132
0.096,-0.000198808
0.1,-0.000653991
0.1,-0.000653991
0.1,-0.000693714
0.11039,8.63248e-05
0.112,-0.000106975
0.12,-0.000218
0.12,-0.000555175
0.125,-0.00194873
0.133333,-0.000167453
0.142857,-0.000453634
0.144,-0.000171711
0.144,6.64662e-05
0.144,-0.000236625
0.148,-0.000171781
0.15,-0.00141293
0.152,-7.7778e-05
0.16,-0.000403181
0.16,-0.000226269
0.16,-0.000408125
0.16,-6.15418e-05
0.16,-0.00126035
0.166667,-0.000449216
0.172,-0.000465283
0.176,-0.000291088
0.178,-0.000334108
0.18,-0.000179542
0.18,-2.60469e-05
0.183908,-0.000297175
0.189394,-0.000258738
0.191667,-0.000733617
0.192,-0.000159613
0.2,-0.000407699
0.2,-0.000605167
0.2,-0.000293356
0.2,-0.000364652
0.2,-0.000683412
0.2,-0.000297956
0.2,-0.00028915
0.2,-0.000284143
0.2,-0.000427865
0.2,-0.00300757
0.2,-0.000532835
0.2,-0.000298376
0.2,-0.000798152
0.2,-0.000805209
0.21,-0.00029889
0.22,-0.00123309
0.228,-0.000214731
0.24,-0.000542858
0.24,-0.000266034
0.24,-0.000220853
0.244966,-0.000228304
0.244966,-0.000377612
0.246,-0.000370744
0.25,-0.000672818
0.25,-0.000534471
0.256,-0.000207298
0.26,4.44493e-06
0.27,-0.00274561
0.28,-0.000193363
0.287977,-0.0002009
0.299963,-0.000139874
0.3,-0.00134355
0.3,-0.000680157
0.3,-0.000416094
0.3,-0.000306109
0.3,-0.000576902
0.3,-0.000427467
0.3,-0.000849534
0.303951,-0.000157292
0.3125,-0.000494105
0.32,-0.00058017
0.32,-0.000337365
0.32,-0.000326693
0.324333,-0.000317607
0.33,-0.000324322
0.333333,-0.000317924
0.336,-0.000316625
0.34,-0.000385075
0.34,-0.000365724
0.35,-0.000457935
0.351958,-0.000265223
0.36,-0.000214514
0.363,-0.000358924
0.372,-0.000587985
0.384,-0.000318835
0.384615,-0.000460394
0.4,-0.000330346
0.4,-0.000490582
0.4,-0.000319111
0.4,-0.00024884
0.4,-0.000325078
0.4,-0.0004907
0.4,-0.000601729
0.4,-0.00269876
0.4,-0.000553474
0.4,-0.000147056
0.4,-0.000369954
0.4,-0.000390867
0.415385,-0.000269742
0.42,-0.000371929
0.43,-0.0003265
0.44,-0.000357624
0.45,-0.00356568
0.45,-0.000498179
0.452632,-0.00101146
0.46,-0.0118294
0.479904,-0.000436324
0.48,-0.000262821
0.485437,-0.000349523
0.495283,-0.00075762
0.5,-0.000349244
0.5,-0.00067256
0.5,-0.000541037
0.5,-0.00322525
0.5,-0.000616775
0.5,-0.000312966
0.50104,-0.000386808
0.507614,-0.000479375
0.512,-0.000436468
0.51872,-0.000360656
0.520833,-0.000660658
0.52872,-0.000308073
0.533333,-0.000311438
0.542005,-0.00034708
0.55,-0.000439507
0.56,-0.000347939
0.571429,-0.000658248
0.575,-0.000463072
0.587,-0.000930432
0.6,-0.00061536
0.6,-0.000446039
0.6,-0.000515577
0.6,-0.000583111
0.616,-0.000194675
0.62,-0.000297667
0.64,-0.00027509
0.663415,-0.000210731
0.67,-0.000346599
0.69,-0.00758257
0.7,-0.00029752
0.72,-0.000690816
0.736,-0.000490537
0.753,-0.000956252
0.757576,-0.000288349
0.8,-0.000236294
0.8,0.000595874
0.8,-0.000231353
0.8,-0.000245137
0.8,-0.00041403
0.8,-0.000237365
0.8,-0.000947256
0.816049,-0.000112146
0.867925,-0.000131998
0.88,-0.000138899
0.913,-0.000325167
0.93,-0.000139922
0.957,-0.000349303
1,-0.000188425
1.00694,-0.000140738
1.04,-0.000541429
1.0625,-0.000448487
1.1,-0.00366872
1.2,-0.000307408
1.25,-0.00547795
1.31,-0.000137012
1.52,0.000581383
1.6,0.000493348
2,0.000948276
2.0,0.015644
2.0,0.0157882
2.17647,0.000788842
2.47667,0.000539813
3,0.000549524
3.2,0.000282862
8,0.000390896
12.8,0.000310365
358.4,0.000599903