File: KFI-RHO-LTA-UFI_paper/dependence_plot_data/UFI_NaSi.csv
Na/Si,SHAP value
0.0,0.000463792
0.0,0.000104608
0.0,0.000463792
0.0,7.27802e-05
0.0,0.00013357
0.0,0.0107492
0.0,9.59724e-05
0.0,0.000108543
0.0,0.000106309
0.0,4.23859e-05
0.0,0.000230288
0.0,0.000118459
0.0,-0.00133012
0.0,9.55434e-05
0.0,0.000223278
0.0,0.000728511
0.0,0.000107533
0.0,0.000101916
0.0,0.000119337
0.0,0.000135688
0.0,0.000133092
0.0,7.60477e-05
0.0,0.000163739
0.0,6.85797e-05
0.0,0.00514873
0.0,0.000131202
0.0,0.000368271
0.0,6.8574e-05
0.0,0.000123185
0.0,8.13978e-05
0.0,0.00021043
0.0,5.17649e-05
0.0,0.000122794
0.0,0.000126395
0.0,8.76191e-05
0.0,7.48057e-05
0.0,7.18689e-05
0.0,2.85653e-05
0.0,0.000625838
0.0,3.52394e-05
0.0,-0.0027675
0.0,0.000107627
0.0,0.000232142
0.0,8.56778e-05
0.0,7.44047e-05
0.0,3.67798e-05
0.0,0.000182421
0.0,0.000125412
0.0,0.000111392
0.0,0.000119359
0.0,6.62794e-05
0.0,-0.00162609
0.0,0.000136177
0.0,0.000109891
0.0,0.000358763
0.0,9.46749e-05
0.0,0.000136238
0.0,5.79277e-05
0.0,0.000128573
0.0,0.000183182
0.0,0.0010415
0.0,4.4521e-05
0.0,7.67669e-05
0.0,6.74282e-05
0.0,6.39951e-05
0.0,0.000154035
0.0,0.00027113
0.0,4.37968e-05
0.0,8.88566e-05
0.0,6.47377e-05
0.0,3.52441e-05
0.0,0.000166858
0.0,0.000100157
0.0,2.76161e-05
0.0,7.34048e-05
0.0,0.000342236
0.0,0.00013761
0.0,9.42996e-05
0.0,0.000218072
0.0,0.00027113
0.0,0.0002021
0.0,0.000159153
0.0,0.000190213
0.0,0.000136351
0.0,6.6446e-05
0.0,0.000169399
0.0,9.4702e-05
0.0,0.000133674
0.0,0.000203449
0.0,0.00013571
0.0,9.95111e-05
0.0,0.000215017
0.0,0.000101863
0.0,0.000204065
0.0,0.000160129
0.0,0.000269517
0.0,0.000382205
0.0,0.000212675
0.0,6.93813e-05
0.0,0.000180502
0.0,0.000190213
0.0,9.29623e-05
0.0,9.22851e-05
0.0,0.000177491
0.0,7.89513e-05
0.0,0.000160172
0.0,0.000128749
0.0,0.000101217
0.0005,0.000171603
0.008,0.000208366
0.0125,0.000164541
0.0181818,0.000192927
0.02,0.000192973
0.02,0.000420801
0.0220513,8.45167e-05
0.0243333,0.000265626
0.025,0.0001385
0.028,0.000109703
0.03,9.11335e-05
0.03,0.000368949
0.03,5.28246e-05
0.0334,0.00010731
0.04,0.000424179
0.048,0.000445821
0.05,0.000301798
0.05,-0.000754704
0.05,0.00034621
0.06,0.000513612
0.06,0.000445665
0.0625,-0.00174267
0.0638298,0.000198922
0.0666667,0.000149282
0.0711111,0.00103343
0.075,0.000485087
0.08,-0.000135137
0.08,0.000522286
0.08,0.000372159
0.083,0.000422166
0.09,0.000446619
0.09,0.000498915
0.1,0.000291819
0.1,0.000159327
0.1,0.000166875
0.1,0.00108512
0.1,0.000108504
0.1,9.96523e-05
0.1,6.54173e-05
0.1,0.000217859
0.1,0.000221304
0.1,0.000285079
0.1,8.37346e-05
0.100671,0.000224163
0.100671,0.000238035
0.101299,0.000143069
0.11,0.000365995
0.11,0.00017116
0.11,0.000458748
0.113208,0.000979319
0.117647,0.000931919
0.12,0.000157991
0.12,0.000645501
0.133333,5.63244e-05
0.136364,0.000603193
0.14,0.000301245
0.15,0.000353569
0.15,-9.05956e-06
0.16,5.66501e-05
0.16,-4.61301e-05
0.17,0.000222321
0.18,0.000242356
0.18,0.000148427
0.18,-1.38931e-05
0.18,5.69218e-05
0.185,-3.00623e-05
0.2,-0.000243875
0.2,0.00011544
0.2,-1.72893e-05
0.2,0.000137817
0.2,-5.90465e-06
0.2,0.000285674
0.2,-3.72395e-05
0.2,7.96687e-05
0.2,2.69662e-06
0.2,0.000490475
0.21,-0.000184477
0.22,-2.78751e-05
0.22,-1.80613e-05
0.232,3.16535e-05
0.24,-1.21766e-05
0.246,-9.76265e-06
0.25,-0.00021179
0.25,-0.000142017
0.26,-0.000221336
0.276923,-0.000156869
0.28,-0.00140798
0.29697,-0.000226289
0.3,-0.00147915
0.3,-0.000603718
0.3,-0.000175761
0.3,-0.000254813
0.3,-0.000245172
0.3,-9.5816e-05
0.3,-0.000470447
0.32,-0.000228572
0.33,-0.000201001
0.333333,-0.000188361
0.333333,-0.000180131
0.35,-0.000271271
0.36,-0.000357032
0.361702,-0.000348154
0.379939,-0.000298086
0.38,-0.00020825
0.4,-0.000289833
0.404959,-0.00021924
0.42,-0.000278312
0.42,-0.000389868
0.46,-0.00049518
0.466,-0.000287253
0.47,-0.000252061
0.47,-0.000269022
0.472727,-0.000494096
0.48,-0.000245265
0.485437,-0.000320797
0.5,-0.000291513
0.5,-0.0010475
0.52,-0.000452318
0.524843,-0.000204487
0.527778,-0.0110452
0.529,-0.000465909
0.533333,-0.00028178
0.54,-0.000256467
0.542005,-0.000327573
0.5559,-0.000428087
0.565789,-0.000646443
0.574713,-0.000448165
0.58,-0.000472482
0.6,-0.000284362
0.6,-0.000246704
0.6,-0.000462783
0.6,-0.000386005
0.6,-0.000305462
0.6,-0.000248853
0.6,-0.000348258
0.6,-0.000283742
0.6,-0.000241888
0.6,-0.000286441
0.6269,-0.00028256
0.64,-0.000398362
0.64,-0.000326204
0.6609,-0.000249846
0.7,-0.000325039
0.7,-0.000236828
0.716763,-0.00031721
0.73,-0.000298495
0.73,-0.00030528
0.73,-0.000358466
0.77037,-0.000361601
0.8,-0.000266102
0.8,-0.000355436
0.8,-0.000418166
0.833333,-0.000499396
0.87,-0.000273848
0.88,-0.000304594
0.92,-0.000478992
0.967742,-0.000649662